Frequency (Hz)	Channel 2 Magnitude (dB)	Channel 2 Phase (deg)
172	-38.37465675	-90.9224344
185.0510657	-37.70047644	-90.6281137
199.092424	-37.03367127	-91.09897488
214.1992165	-36.40026981	-90.49734709
230.4522866	-35.78760351	-90.62647508
247.9386118	-35.21659835	-91.57203333
266.7517695	-34.50837021	-90.77868372
286.9924374	-33.86842465	-90.80971547
308.7689326	-33.20298432	-90.64093878
332.1977909	-32.46111163	-90.46320069
357.4043909	-31.90647883	-90.73845243
384.5236247	-31.17511228	-90.76302784
413.7006194	-30.61460796	-90.67752738
445.0915146	-29.92431543	-90.87720406
478.8642973	-29.28511348	-90.68154932
515.1997009	-28.60343954	-90.77351271
554.2921728	-27.92824702	-90.31994598
596.3509145	-27.26783688	-90.84225648
641.6010016	-26.59595816	-90.71301233
690.284588	-25.90761054	-90.94836285
742.6622015	-25.22406341	-90.87749651
799.0141388	-24.54280202	-91.14372433
859.6419646	-23.81606583	-90.85490734
924.8701262	-23.12443022	-90.86926004
995.047689	-22.48337672	-91.1288427
1070.550205	-21.75152318	-91.06785898
1151.781723	-21.09608715	-91.18812841
1239.17695	-20.41264178	-90.99051132
1333.203577	-19.76813231	-90.88304429
1434.364783	-19.14143854	-91.04811619
1543.201929	-18.56623319	-90.92502191
1660.297451	-17.81988506	-90.52556418
1786.277981	-17.18431968	-90.93333606
1921.817698	-16.54136053	-90.8945951
2067.641937	-15.8917518	-91.21198907
2224.53107	-15.1642133	-90.75680883
2393.324682	-14.49299912	-91.08713499
2574.926064	-13.77178509	-90.9703497
2770.307049	-13.03824877	-90.99899165
2980.513208	-12.28625188	-91.10749209
3206.669451	-11.50202106	-90.97231248
3449.986043	-10.70867409	-91.21351182
3711.765081	-9.859441759	-91.23311183
3993.407465	-9.035050597	-91.43177568
4296.420392	-8.208397755	-91.51750556
4622.42542	-7.256786239	-91.57854202
4973.167153	-6.166870076	-92.251546
5350.522568	-4.933112532	-92.57361961
5756.511066	-3.555031833	-93.21014893
6193.305278	-2.343012202	-93.8891504
6663.242686	-0.998725172	-94.13714422
7168.838141	0.109929853	-94.40372709
7712.797315	1.201494433	-93.88358051
8298.031179	1.967647838	-93.67155179
8927.671589	2.544846032	-92.75355669
9605.088035	2.890077538	-92.06325696
10333.90568	3.159501919	-91.66256391
11118.02477	3.327098879	-90.8002399
11961.64146	3.370969405	-90.46386055
12869.27035	3.134747659	-90.25636338
13845.76857	2.896506918	-90.57531722
14896.3618	2.921103714	-93.9500764
16026.67225	3.077673054	-97.95948002
17242.74872	3.412859439	-100.5442644
18551.09899	3.424656695	-112.3258183
19958.72464	3.436264298	-122.7958679
21473.15852	3.458070839	-130.3664038
23102.50506	3.471151132	-136.8749857
24855.48361	3.488373132	-142.4280059
26741.47519	3.496657145	-147.6093079
28770.57257	3.516187983	-152.1339003
30953.6344	3.531486182	-156.6713552
33302.34322	3.543692687	-160.5557546
35829.26805	3.562986941	-164.3521309
38547.93161	3.585905393	-168.2121482
41472.88271	3.601730888	-171.6221397
44619.77409	3.604183243	-175.1244475
48005.44621	3.604283985	-178.5739604
51648.01734	3.604845331	178.0658096
55566.98053	3.59565658	174.8580422
59783.30795	3.583565249	171.35218
64319.56308	3.581137622	168.333671
69200.02148	3.564063185	164.9244158
74450.80072	3.557335826	161.6478513
80100.0001	3.537863817	158.46238
86177.85107	3.528075705	154.8428085
92716.87897	3.505153617	151.2858166
99752.07712	3.494141599	147.59883
107321.0941	3.478592235	144.0500624
115464.4351	3.465662368	140.0569011
124225.6789	3.456740816	135.9501131
133651.7109	3.444948522	131.7137248
143792.974	3.431729953	127.2671359
154703.7389	3.425579178	122.5320356
166442.3939	3.415667594	117.4509556
179071.758	3.405911514	112.2402823
192659.4166	3.397676042	106.3173724
207278.0835	3.386223668	100.821153
223005.9899	3.375878596	95.19341645
239927.3029	3.367855729	90.95681069
258132.5761	3.358519205	87.47550744
277719.2344	3.346640714	84.41572831
298792.0948	3.338256216	83.83616493
321463.9277	3.32675043	83.51738447
345856.0606	3.31061803	82.79260902
372099.0267	3.296309397	82.23175452
400333.2643	3.274150511	81.60835622
430709.8674	3.247840646	80.97798839
463391.3953	3.156406136	80.29313783
498552.7416	2.703866213	79.75522132
536382.0707	3.137857012	78.80794323
577081.8245	3.092559164	78.01179711
620869.806	3.036537549	77.17315433
667980.3447	2.968962622	76.29919012
718665.5504	2.892437342	75.39227909
773196.6629	2.799991593	74.46125202
831865.5028	2.686682026	73.54651758
894986.034	2.547363113	72.59277128
962896.043	2.449189436	71.65045428
1035958.947	2.182979433	70.77369511
1114565.74	1.927489831	69.92747163
1199137.081	1.605461546	69.13900059
1290125.552	1.187479778	68.4142674
1388018.071	0.583367422	67.67708569
1493338.508	-0.193926813	66.82203823
1606650.479	-0.966532666	65.9649949
1728560.368	-1.755901782	65.16212442
1859720.572	-2.542544325	64.4323698
2000832.987	-3.327112519	63.75612791
2152652.771	-4.105771073	63.12977246
2315992.381	-4.879113916	62.56354171
2491725.92	-5.644938452	62.02594901
2680793.82	-6.39580883	61.53943272
2884207.868	-7.141427351	61.10017075
3103056.627	-7.857970894	60.69121927
3338511.255	-8.561433134	60.29700624
3591831.777	-9.238931399	59.94308382
3864373.827	-9.895696649	59.59393913
4157595.902	-10.52163139	59.21172068
4473067.166	-11.11874484	58.92398914
4812475.85	-11.67939537	58.56671423
5177638.284	-12.20973877	58.21830594
5570508.619	-12.69619093	57.81301323
5993189.282	-13.15038821	57.39987827
6447942.231	-13.55940008	57.04308459
6937201.057	-13.9258732	56.56770779
7463584.004	-14.26051375	56.22048785
8029907.989	-14.52293618	55.8545568
8639203.669	-14.75837015	55.47611129
9294731.663	-14.97575192	55.15902642
10000000	-15.56779283	55.94785217
