Frequency (Hz),Channel 2 (dBV)
0,-34.75805192181159
19.53125,-35.04245300268254
39.0625,-38.43294820856042
58.59375,-48.40405935901472
78.125,-66.86168823098411
97.65625,-86.31396853407523
117.1875,-70.40461879355504
136.71875,-68.64175853567868
156.25,-71.71522674078652
175.78125,-80.03191067991139
195.3125,-77.67187886647521
214.84375,-73.81163188593285
234.375,-74.35567410123413
253.90625,-77.84738564916105
273.4375,-74.27559104545682
292.96875,-70.19342464619069
312.5,-70.32242165184117
332.03125,-72.38552251470442
351.5625,-75.28091006335124
371.09375,-77.01898224261481
390.625,-72.28450585227867
410.15625,-69.25177510029479
429.6875,-67.530530176497
449.21875,-69.23420674139319
468.75,-77.52293062911973
488.28125,-83.75189473239126
507.8125,-76.36922585845102
527.34375,-74.79798777004463
546.875,-78.64403972418847
566.40625,-82.30328229372942
585.9375,-78.59349349801644
605.46875,-76.4766192198705
625,-74.43434553256103
644.53125,-74.01943589851759
664.0625,-81.4495091968985
683.59375,-79.73226508134864
703.125,-72.97540368912392
722.65625,-70.33894984377045
742.1875,-69.75086683687573
761.71875,-72.77029314162853
781.25,-77.47498984759244
800.78125,-81.59613469513681
820.3125,-107.0865119191882
839.84375,-84.15702015089721
859.375,-81.56459985826413
878.90625,-81.33477217870049
898.4375,-77.39679348330111
917.96875,-74.15904001517421
937.5,-74.51863897015924
957.03125,-76.15461049233487
976.5625,-78.97716530495654
996.09375,-82.26630875709347
1015.625,-81.00036729979277
1035.15625,-81.30211887105096
1054.6875,-88.12222617462115
1074.21875,-92.11857125047658
1093.75,-82.27352380652603
1113.28125,-81.07421584366926
1132.8125,-79.47169309947314
1152.34375,-79.27069377546609
1171.875,-79.92312858135725
1191.40625,-79.36205178512773
1210.9375,-79.54042961632175
1230.46875,-77.07058547808711
1250,-74.28426897799167
1269.53125,-74.14194497542178
1289.0625,-71.88702300606107
1308.59375,-69.74432338717749
1328.125,-68.89431440646545
1347.65625,-68.29006554408794
1367.1875,-69.46048568968769
1386.71875,-72.14214773421195
1406.25,-72.39971735690897
1425.78125,-71.61601102741321
1445.3125,-73.3236530214468
1464.84375,-76.29047914589688
1484.375,-78.47004216813522
1503.90625,-81.2972653764583
1523.4375,-77.62281045971665
1542.96875,-74.80980606045074
1562.5,-77.5269037204593
1582.03125,-80.11625000852712
1601.5625,-73.60125572639846
1621.09375,-71.30204623146211
1640.625,-69.77884614168941
1660.15625,-69.67080633423444
1679.6875,-73.44882009865771
1699.21875,-76.84082357195238
1718.75,-76.76194636331485
1738.28125,-78.18188421519616
1757.8125,-82.02161742816473
1777.34375,-82.94543196660101
1796.875,-82.11469703669502
1816.40625,-81.93911567743785
1835.9375,-77.55388625472725
1855.46875,-75.03485516573326
1875,-73.73897178794833
1894.53125,-74.43702669376702
1914.0625,-76.63304423769833
1933.59375,-77.4766718606525
1953.125,-81.3147846685012
1972.65625,-95.59535657996362
1992.1875,-77.72135933401275
2011.71875,-72.39907984672945
2031.25,-70.53807609838861
2050.78125,-72.2896665759997
2070.3125,-79.51058698588812
2089.84375,-82.33576382567038
2109.375,-73.82774668524435
2128.90625,-71.06440724291173
2148.4375,-70.02145888122327
2167.96875,-70.69520009886675
2187.5,-72.36389622659041
2207.03125,-72.85971229310424
2226.5625,-74.65595010381082
2246.09375,-77.02436673732805
2265.625,-78.81944571728371
2285.15625,-80.95048636214523
2304.6875,-86.03273991507908
2324.21875,-88.46664367905294
2343.75,-76.86375790132676
2363.28125,-71.78416176530224
2382.8125,-69.48659101614129
2402.34375,-68.18191386007041
2421.875,-68.36868742069765
2441.40625,-69.19322370410381
2460.9375,-69.31788975924528
2480.46875,-70.27101190255675
2500,-71.43615064324818
2519.53125,-72.52418134323337
2539.0625,-74.1053835516323
2558.59375,-73.91756195746696
2578.125,-76.45663722743134
2597.65625,-77.44540177011699
2617.1875,-75.10860613480146
2636.71875,-75.55402912053027
2656.25,-78.56171421588813
2675.78125,-81.08708153143353
2695.3125,-78.7561094946885
2714.84375,-77.87702605000551
2734.375,-73.60101631388662
2753.90625,-69.13309082012734
2773.4375,-68.94078756384368
2792.96875,-73.95402636752203
2812.5,-76.78738426714824
2832.03125,-72.11105584048059
2851.5625,-69.80458109329442
2871.09375,-68.44312379929006
2890.625,-69.46495223246012
2910.15625,-72.6569729054071
2929.6875,-71.80052713961874
2949.21875,-68.08698399762287
2968.75,-66.36852459780081
2988.28125,-65.50675424774505
3007.8125,-65.19635703510855
3027.34375,-66.8458737195711
3046.875,-69.91946020156131
3066.40625,-70.88026467318389
3085.9375,-70.88150902637457
3105.46875,-71.59937387558513
3125,-73.2568324460902
3144.53125,-77.74280649933925
3164.0625,-80.37056889985783
3183.59375,-79.3286981606617
3203.125,-86.5260737295738
3222.65625,-78.4718543379792
3242.1875,-71.1858101532596
3261.71875,-69.96500763101012
3281.25,-71.75642067036426
3300.78125,-75.53384346392546
3320.3125,-82.67587983219838
3339.84375,-80.19588226460047
3359.375,-79.9065845956502
3378.90625,-81.11428377096983
3398.4375,-78.71444918069659
3417.96875,-74.43119331994012
3437.5,-72.32426682970338
3457.03125,-72.03229865612187
3476.5625,-70.969832788837
3496.09375,-69.52785527485514
3515.625,-69.49563958048815
3535.15625,-71.20880585616698
3554.6875,-72.83505689590142
3574.21875,-72.40794904201854
3593.75,-71.06778574474114
3613.28125,-68.33950039474944
3632.8125,-66.37960315593516
3652.34375,-65.98898478499551
3671.875,-67.3276228854054
3691.40625,-70.1133295410413
3710.9375,-72.95648618657891
3730.46875,-75.68189923672199
3750,-75.90791771235496
3769.53125,-71.80174101052739
3789.0625,-70.65262080993048
3808.59375,-73.07286064602179
3828.125,-75.8039397704504
3847.65625,-82.42941054412535
3867.1875,-74.14843085566967
3886.71875,-68.24357519822553
3906.25,-68.36577115544954
3925.78125,-71.38779455174745
3945.3125,-84.06299852236442
3964.84375,-76.83331082270813
3984.375,-76.0142448421133
4003.90625,-76.17389308559071
4023.4375,-75.27051967858587
4042.96875,-77.98349762821292
4062.5,-79.8269599717417
4082.03125,-82.72014938866818
4101.5625,-82.1796996144932
4121.09375,-81.63144754678603
4140.625,-78.02286544644299
4160.15625,-76.51598966151144
4179.6875,-76.639746022062
4199.21875,-77.48560023468258
4218.75,-77.81145168763639
4238.28125,-80.88540466213233
4257.8125,-75.82141171241403
4277.34375,-74.29608064315896
4296.875,-77.00882062579876
4316.40625,-75.439619906258
4335.9375,-74.04945521991529
4355.46875,-75.20170593017241
4375,-78.89831509898526
4394.53125,-88.17693866011338
4414.0625,-88.85882118556708
4433.59375,-81.34910145687371
4453.125,-77.85702869036813
4472.65625,-80.14062414941627
4492.1875,-88.93757922148751
4511.71875,-81.39553954179404
4531.25,-76.5693630393272
4550.78125,-74.2047245026603
4570.3125,-74.31280507340652
4589.84375,-73.36080846731366
4609.375,-72.85682012157675
4628.90625,-73.03872183265825
4648.4375,-70.26149910777376
4667.96875,-68.54435095842506
4687.5,-67.87589996040583
4707.03125,-68.68708613310163
4726.5625,-71.0063349281465
4746.09375,-70.62283481119563
4765.625,-70.55990353360176
4785.15625,-72.67621523546559
4804.6875,-73.42224414375899
4824.21875,-76.43388279228779
4843.75,-78.02003520252769
4863.28125,-76.19877971708854
4882.8125,-73.05562116130298
4902.34375,-69.9090147763816
4921.875,-67.49003687344123
4941.40625,-65.94759356244484
4960.9375,-66.28030147817354
4980.46875,-68.46693160167641
5000,-72.37178207403154
5019.53125,-77.60579096736753
5039.0625,-78.13569722761306
5058.59375,-73.94680144836182
5078.125,-71.82647816494287
5097.65625,-70.60969823935341
5117.1875,-70.8160579919668
5136.71875,-72.58994999084824
5156.25,-73.77755241697123
5175.78125,-74.17241602716507
5195.3125,-78.98828610828161
5214.84375,-79.03917581398481
5234.375,-71.34456869828259
5253.90625,-67.23816732471848
5273.4375,-65.96808473040976
5292.96875,-67.84503538514055
5312.5,-73.01558516340285
5332.03125,-83.56997245376931
5351.5625,-82.9563411842073
5371.09375,-75.40285061510322
5390.625,-71.04559378961876
5410.15625,-68.26284647555129
5429.6875,-69.0438145803066
5449.21875,-73.76406976490337
5468.75,-77.14092208685469
5488.28125,-79.74561537450577
5507.8125,-78.97161652561039
5527.34375,-79.06632854556415
5546.875,-83.19421605305634
5566.40625,-78.62319811965796
5585.9375,-79.07590011363118
5605.46875,-82.32173668286941
5625,-76.82075776632418
5644.53125,-73.00664922347056
5664.0625,-72.04452224758265
5683.59375,-72.46997273811301
5703.125,-74.26040279450422
5722.65625,-81.20089976424461
5742.1875,-85.59929017500552
5761.71875,-79.70142307189454
5781.25,-78.54961121348596
5800.78125,-75.91338337851997
5820.3125,-79.03986998531069
5839.84375,-87.6858224691959
5859.375,-77.94682148061423
5878.90625,-72.75728532224571
5898.4375,-69.3576344274077
5917.96875,-68.64808077242149
5937.5,-67.64064687325804
5957.03125,-70.66369137204066
5976.5625,-75.32921379862036
5996.09375,-73.50899388404162
6015.625,-73.76192964336161
6035.15625,-80.03358960756111
6054.6875,-74.63746106397753
6074.21875,-70.51834061965903
6093.75,-67.86023644528643
6113.28125,-67.96756324630728
6132.8125,-67.99632261651422
6152.34375,-71.23798196260725
6171.875,-78.70753274032511
6191.40625,-73.31901700116236
6210.9375,-80.35907478428146
6230.46875,-76.69244093004585
6250,-76.89388310268907
6269.53125,-82.28070305617243
6289.0625,-68.74674720518351
6308.59375,-65.59201320029366
6328.125,-65.411282518525
6347.65625,-19.88049686810004
6367.1875,-0.9599069490667812
6386.71875,7.468680989202145
6406.25,9.819472769467893
6425.78125,9.927346890358107
6445.3125,9.221845127747921
6464.84375,4.361550814869774
6484.375,-8.313463379039899
6503.90625,-35.9543927658687
6523.4375,-67.0689799184097
6542.96875,-88.18421860076455
6562.5,-83.14656597603079
6582.03125,-69.6656080036348
6601.5625,-76.84547640570636
6621.09375,-69.62312353315228
6640.625,-72.47392914921443
6660.15625,-68.22658022902606
6679.6875,-67.64227847636798
6699.21875,-71.20708042782843
6718.75,-78.66734613595187
6738.28125,-79.18705870667824
6757.8125,-79.38532048721272
6777.34375,-81.83729955577732
6796.875,-89.26887967431935
6816.40625,-81.74333553095775
6835.9375,-83.84486364248716
6855.46875,-71.53447821336469
6875,-68.85208320213066
6894.53125,-68.54481453639168
6914.0625,-71.10521331321567
6933.59375,-75.03984919875121
6953.125,-76.2615849587411
6972.65625,-76.80840852690822
6992.1875,-71.82620870224856
7011.71875,-67.30046597964608
7031.25,-66.65184724795036
7050.78125,-68.34751033554009
7070.3125,-69.73892587598824
7089.84375,-68.66778295648626
7109.375,-67.20587389008556
7128.90625,-66.09286325998715
7148.4375,-65.99912627597037
7167.96875,-68.39678825383578
7187.5,-71.70080091518565
7207.03125,-69.65445470933092
7226.5625,-67.79336718949006
7246.09375,-67.60243012403778
7265.625,-68.73433766042588
7285.15625,-71.97899419277839
7304.6875,-76.84862429138731
7324.21875,-80.94272076574913
7343.75,-86.03489035226852
7363.28125,-81.37142298627913
7382.8125,-73.67149952262844
7402.34375,-70.81300505998215
7421.875,-69.6319880830233
7441.40625,-70.89379165911693
7460.9375,-73.94759954099833
7480.46875,-83.81770208878665
7500,-77.26589927885874
7519.53125,-79.69251830672717
7539.0625,-79.17504621954137
7558.59375,-78.6412206409338
7578.125,-77.58343713238519
7597.65625,-73.94758979583199
7617.1875,-69.57699614852699
7636.71875,-69.42753077571388
7656.25,-70.38065737736164
7675.78125,-75.34175595843917
7695.3125,-90.96875339080334
7714.84375,-82.51403087595357
7734.375,-79.80193857151644
7753.90625,-81.93994884977799
7773.4375,-78.17783748157639
7792.96875,-76.29160010733433
7812.5,-78.27923147798712
7832.03125,-78.26624127440962
7851.5625,-76.3247657958098
7871.09375,-74.44975335260472
7890.625,-77.44460245816526
7910.15625,-78.72794904147885
7929.6875,-76.03753993141632
7949.21875,-71.51269027195862
7968.75,-70.43592712903359
7988.28125,-72.07074691869623
8007.8125,-73.73240043519613
8027.34375,-74.15815671770126
8046.875,-76.27771590209024
8066.40625,-79.98276065388565
8085.9375,-76.97998049313696
8105.46875,-73.19897737054913
8125,-73.34660846629785
8144.53125,-75.01570442662468
8164.0625,-74.9764323411535
8183.59375,-75.56996776132506
8203.125,-78.38277392009867
8222.65625,-80.86394305987309
8242.1875,-86.68553431186314
8261.71875,-81.06049269021803
8281.25,-80.75595140818163
8300.78125,-79.7768257439098
8320.3125,-81.2540560645818
8339.84375,-88.11305379482812
8359.375,-87.72820826972625
8378.90625,-83.87313257572131
8398.4375,-79.05180851569452
8417.96875,-88.65779011575827
8437.5,-74.7519663709007
8457.03125,-68.897488846388
8476.5625,-66.01435522342052
8496.09375,-65.27063585822198
8515.625,-66.54653107023972
8535.15625,-69.53573429108205
8554.6875,-70.0934830717631
8574.21875,-72.27085323767983
8593.75,-76.32190602111942
8613.28125,-72.40249002659658
8632.8125,-68.04938193172015
8652.34375,-65.50960341793493
8671.875,-64.82657131396036
8691.40625,-66.47410972944562
8710.9375,-70.04587039377424
8730.46875,-73.67366984961002
8750,-72.46680424317259
8769.53125,-71.39434896267619
8789.0625,-72.91309333331822
8808.59375,-70.63198004841514
8828.125,-69.13922318437375
8847.65625,-72.19674840428512
8867.1875,-84.51539965659762
8886.71875,-73.82938394250502
8906.25,-68.37785392852653
8925.78125,-66.38723644535391
8945.3125,-66.56305318452938
8964.84375,-67.81153896973906
8984.375,-68.37861952406126
9003.90625,-66.94473215611596
9023.4375,-67.269095608429
9042.96875,-73.26976440537928
9062.5,-79.43522382983531
9082.03125,-69.75309016495896
9101.5625,-67.07221054385562
9121.09375,-66.3346215679899
9140.625,-69.47714686303173
9160.15625,-71.36997182895703
9179.6875,-67.67708586355111
9199.21875,-66.04031578216689
9218.75,-65.16951183391765
9238.28125,-64.94939775223385
9257.8125,-67.25730260912718
9277.34375,-71.44644607655052
9296.875,-82.43512293062524
9316.40625,-77.85140526548625
9335.9375,-73.05920486410304
9355.46875,-73.35240951129505
9375,-81.90821889229485
9394.53125,-75.18998099816213
9414.0625,-72.71891407572402
9433.59375,-72.88036132555321
9453.125,-71.97205440462365
9472.65625,-71.3289317767377
9492.1875,-72.16605494496369
9511.71875,-73.46830415355181
9531.25,-82.1088900764195
9550.78125,-84.36280503358647
9570.3125,-80.30916476814511
9589.84375,-76.98341199969181
9609.375,-74.06431786843822
9628.90625,-76.06701387209887
9648.4375,-75.65731996122666
9667.96875,-77.24096718145144
9687.5,-73.11808540124613
9707.03125,-70.44234767672376
9726.5625,-71.74147665277827
9746.09375,-72.94753297460832
9765.625,-74.66907843359461
9785.15625,-75.87198498110891
9804.6875,-74.64778907585347
9824.21875,-81.10593941440212
9843.75,-76.66945416380121
9863.28125,-70.57811474216871
9882.8125,-68.19276541919373
9902.34375,-68.98726046326108
9921.875,-72.53956517466109
9941.40625,-72.08530742685245
9960.9375,-69.23293084040928
9980.46875,-68.26260209566861
10000,-67.503827072992
10019.53125,-66.9606859304223
10039.0625,-67.97462465725185
10058.59375,-69.02145599809499
10078.125,-69.34352683703568
10097.65625,-67.81310002169275
10117.1875,-66.89653446714642
10136.71875,-68.44102225132274
10156.25,-69.61828132967001
10175.78125,-68.56747538887117
10195.3125,-68.77851638155032
10214.84375,-70.83090576749798
10234.375,-72.3017796226336
10253.90625,-73.09726957417139
10273.4375,-73.57073289450096
10292.96875,-73.51222785058157
10312.5,-74.13908418257085
10332.03125,-75.13890637037166
10351.5625,-73.53175390932832
10371.09375,-72.37260943415876
10390.625,-72.1084096402214
10410.15625,-71.71978021116105
10429.6875,-74.64787425435824
10449.21875,-78.30818270067502
10468.75,-75.6698181789899
10488.28125,-81.42306180709605
10507.8125,-81.86990137365113
10527.34375,-71.40082227655638
10546.875,-67.98387819379853
10566.40625,-67.1069552287727
10585.9375,-66.20621847949212
10605.46875,-65.60727701868134
10625,-66.06494947481147
10644.53125,-68.17343019603254
10664.0625,-70.67167303010413
10683.59375,-73.61743347846843
10703.125,-76.86059964816089
10722.65625,-82.8861873167902
10742.1875,-80.02762457421119
10761.71875,-76.13268495479907
10781.25,-73.99596177367029
10800.78125,-75.43784221972928
10820.3125,-77.23249396443956
10839.84375,-73.4101409692759
10859.375,-69.76416170706707
10878.90625,-69.72037831202763
10898.4375,-72.11459193155886
10917.96875,-74.6024850203776
10937.5,-79.33753298592839
10957.03125,-81.74041924765014
10976.5625,-75.7986753927069
10996.09375,-73.30106305146235
11015.625,-71.54365827555065
11035.15625,-70.94068165587883
11054.6875,-71.90219286876449
11074.21875,-73.30197689732645
11093.75,-74.62072307325892
11113.28125,-74.8803590330279
11132.8125,-78.78351491250059
11152.34375,-84.903733236899
11171.875,-74.82940229433707
11191.40625,-71.2854708366845
11210.9375,-68.76846795355716
11230.46875,-69.11940145476086
11250,-71.72672008035036
11269.53125,-73.80426307214735
11289.0625,-75.47960637345106
11308.59375,-75.71982997805276
11328.125,-75.29045919008576
11347.65625,-73.26723361363916
11367.1875,-72.24757406502459
11386.71875,-73.18022168748649
11406.25,-74.82473726597013
11425.78125,-77.30657981533162
11445.3125,-78.23957494922891
11464.84375,-77.61999389340993
11484.375,-78.51603774449285
11503.90625,-75.38174531396345
11523.4375,-73.64122621470958
11542.96875,-72.5810481525823
11562.5,-69.92207078632083
11582.03125,-68.68293959176634
11601.5625,-69.25455315648098
11621.09375,-70.06501464670615
11640.625,-71.65374508237508
11660.15625,-74.49578230744723
11679.6875,-76.81854260693514
11699.21875,-77.82426154409515
11718.75,-78.61139009243385
11738.28125,-75.61691270814751
11757.8125,-75.14320871410331
11777.34375,-80.43575059762127
11796.875,-91.37191634123468
11816.40625,-76.2962737644858
11835.9375,-70.03616717669064
11855.46875,-69.77284815423489
11875,-72.4207105167329
11894.53125,-75.57778811073581
11914.0625,-75.48531241702101
11933.59375,-72.34240685896245
11953.125,-70.52703293787744
11972.65625,-70.74073823491952
11992.1875,-71.04778328195083
12011.71875,-74.3226453742855
12031.25,-78.72813820431253
12050.78125,-71.37416195095828
12070.3125,-69.4429039154697
12089.84375,-68.67149767446918
12109.375,-68.8511981775633
12128.90625,-69.76255595298495
12148.4375,-69.23978367171887
12167.96875,-68.69012078755992
12187.5,-68.36147665524328
12207.03125,-69.24576619619796
12226.5625,-72.63462198698636
12246.09375,-82.16200173303419
12265.625,-86.82446103962191
12285.15625,-79.36309183059807
12304.6875,-80.20732804868045
12324.21875,-82.5517772513988
12343.75,-94.11576791674895
12363.28125,-75.84110581137875
12382.8125,-70.8050016814227
12402.34375,-71.22379779129969
12421.875,-71.71423789301622
12441.40625,-70.36889554294601
12460.9375,-70.16246565087728
12480.46875,-69.93734222036105
12500,-70.65226631249833
12519.53125,-73.76338813519295
12539.0625,-79.98642339635043
12558.59375,-80.9378616324548
12578.125,-77.27780669089501
12597.65625,-80.68378167909002
12617.1875,-75.88059924005422
12636.71875,-69.0840350385369
12656.25,-65.73659199935865
12675.78125,-64.54125234810085
12695.3125,-64.63786105924696
12714.84375,-65.5909445917909
12734.375,-66.44554297182015
12753.90625,-66.10899443249036
12773.4375,-67.49683538605132
12792.96875,-57.97250160749317
12812.5,-50.88043282735821
12832.03125,-49.09460069460322
12851.5625,-48.98368976147063
12871.09375,-50.39315178448089
12890.625,-56.80429536910772
12910.15625,-71.17686117713477
12929.6875,-76.20113063812042
12949.21875,-95.07341405858045
12968.75,-75.78581071936485
12988.28125,-71.61292014651357
13007.8125,-70.67790119803094
13027.34375,-68.81761388333922
13046.875,-65.56306050761366
13066.40625,-64.38847699727887
13085.9375,-64.13324400676328
13105.46875,-64.59328273227425
13125,-67.37479744690476
13144.53125,-71.45089632676063
13164.0625,-72.31898764267824
13183.59375,-69.91267747489597
13203.125,-66.55913143153339
13222.65625,-64.33382963276445
13242.1875,-64.36979575659029
13261.71875,-66.42207171592426
13281.25,-70.52732536432102
13300.78125,-79.2761465187907
13320.3125,-79.5157881642388
13339.84375,-75.01417276394696
13359.375,-72.61457873381589
13378.90625,-69.58622717007815
13398.4375,-68.16602946477964
13417.96875,-68.0613641486876
13437.5,-70.55885071936333
13457.03125,-72.66143518639535
13476.5625,-72.52382034295998
13496.09375,-72.41775270881375
13515.625,-72.13704641550618
13535.15625,-74.27434143177604
13554.6875,-73.35735501223081
13574.21875,-71.5485350651139
13593.75,-71.03729106505105
13613.28125,-71.613912171854
13632.8125,-75.06340114712739
13652.34375,-78.41998582741431
13671.875,-83.21696580653634
13691.40625,-78.42362282020454
13710.9375,-85.26209390484057
13730.46875,-75.02630936120157
13750,-70.22978606658764
13769.53125,-67.40986900538262
13789.0625,-65.80295507107627
13808.59375,-66.88963481840999
13828.125,-67.71890558224305
13847.65625,-66.57723362824066
13867.1875,-66.17858939713729
13886.71875,-66.27884259126311
13906.25,-67.36465824194754
13925.78125,-69.83442659734523
13945.3125,-70.65402465058925
13964.84375,-70.79153962783809
13984.375,-70.21523489366386
14003.90625,-70.83222267299848
14023.4375,-71.14031863649907
14042.96875,-70.00235093344639
14062.5,-68.70463790964328
14082.03125,-66.10825278946587
14101.5625,-64.74645952362566
14121.09375,-65.16959455288712
14140.625,-67.40996597447928
14160.15625,-70.79959299543918
14179.6875,-73.00096901733207
14199.21875,-75.90748505336656
14218.75,-78.3429799726671
14238.28125,-85.80284728865544
14257.8125,-83.14123480106497
14277.34375,-82.15980226477913
14296.875,-87.58120828578699
14316.40625,-75.83316995162039
14335.9375,-71.46635463434036
14355.46875,-71.49136744756449
14375,-70.48748478004546
14394.53125,-70.51781762348757
14414.0625,-70.39844803093074
14433.59375,-71.66870155295641
14453.125,-76.44030985928013
14472.65625,-80.06330827286284
14492.1875,-77.54846785730498
14511.71875,-70.45746070757343
14531.25,-70.85208192452212
14550.78125,-75.98524472871625
14570.3125,-79.91556393508968
14589.84375,-80.08251846764131
14609.375,-72.73416507258449
14628.90625,-72.32184253565785
14648.4375,-73.12315256929651
14667.96875,-71.25824411906285
14687.5,-68.72323539586699
14707.03125,-67.84922099104448
14726.5625,-69.1641717973006
14746.09375,-72.57279638414671
14765.625,-74.27036174645623
14785.15625,-71.39372889423223
14804.6875,-69.13454496803774
14824.21875,-71.10399578215937
14843.75,-82.41487332155161
14863.28125,-83.0360975016138
14882.8125,-76.36433063959409
14902.34375,-74.81089480898518
14921.875,-79.82215473063683
14941.40625,-83.14624255435834
14960.9375,-75.37780084500541
14980.46875,-78.94091264496474
15000,-80.13669479245632
15019.53125,-72.71379264199126
15039.0625,-69.83059410340834
15058.59375,-69.00142891663945
15078.125,-68.72177865068829
15097.65625,-69.33165503694465
15117.1875,-73.90478465454777
15136.71875,-82.2054447304468
15156.25,-87.86673159348284
15175.78125,-78.3064059573326
15195.3125,-77.47838516000178
15214.84375,-79.35947960464367
15234.375,-76.37128936989727
15253.90625,-74.97353186743392
15273.4375,-72.40835647252783
15292.96875,-69.9895781607445
15312.5,-69.4021911290356
15332.03125,-70.94270607705337
15351.5625,-73.51965550204974
15371.09375,-71.68799716421033
15390.625,-69.58008946294997
15410.15625,-68.86861914750425
15429.6875,-68.0150286506189
15449.21875,-67.67622264056344
15468.75,-68.87848821675463
15488.28125,-70.81133865130532
15507.8125,-73.20085619987944
15527.34375,-76.81315018537289
15546.875,-74.2438748640796
15566.40625,-72.81651154872687
15585.9375,-74.57090139577713
15605.46875,-75.78585939465925
15625,-80.23280374670094
15644.53125,-81.03486229947137
15664.0625,-81.50110960163292
15683.59375,-77.59511320770807
15703.125,-73.25699822696949
15722.65625,-71.91624908207528
15742.1875,-72.2614190022726
15761.71875,-73.55650935719639
15781.25,-72.94245770627168
15800.78125,-72.84111799511508
15820.3125,-75.5532362101298
15839.84375,-74.18820131138163
15859.375,-69.47925943855158
15878.90625,-66.32320086843157
15898.4375,-63.53196244226392
15917.96875,-62.71777337972335
15937.5,-65.07204223172344
15957.03125,-71.36031806005813
15976.5625,-80.51449118940911
15996.09375,-70.84067307165968
16015.625,-67.68616638905709
16035.15625,-66.68158368512313
16054.6875,-68.73178206900475
16074.21875,-73.57396359050803
16093.75,-89.08252771442319
16113.28125,-70.13893192924927
16132.8125,-65.84692619735996
16152.34375,-66.0587670396268
16171.875,-67.02625923477568
16191.40625,-69.47613985201401
16210.9375,-76.6835022690916
16230.46875,-79.86212165332218
16250,-74.2776236058488
16269.53125,-73.15361629860818
16289.0625,-71.9565994089774
16308.59375,-71.88025545017253
16328.125,-73.46619993749709
16347.65625,-72.42131287669267
16367.1875,-77.06853994042105
16386.71875,-80.65242555116349
16406.25,-75.24395758422905
16425.78125,-74.42642917274847
16445.3125,-76.98320520115588
16464.84375,-88.8420108999393
16484.375,-81.41589204562452
16503.90625,-80.66139012585884
16523.4375,-81.12697259073208
16542.96875,-77.59577573161476
16562.5,-77.6185580613303
16582.03125,-74.69293012134648
16601.5625,-77.14334360646453
16621.09375,-82.64071325604435
16640.625,-78.91211314290973
16660.15625,-74.63467637622864
16679.6875,-74.01410201399972
16699.21875,-74.60058061810389
16718.75,-72.73549964614871
16738.28125,-71.78179233023309
16757.8125,-71.02668806362357
16777.34375,-70.14072726979654
16796.875,-70.25954564220287
16816.40625,-70.20937374403626
16835.9375,-70.46243455879839
16855.46875,-67.05871160609358
16875,-65.43568718801627
16894.53125,-67.05684836507349
16914.0625,-72.06246500954552
16933.59375,-75.94389571980359
16953.125,-69.15043979923978
16972.65625,-69.54116077813988
16992.1875,-73.37500006965607
17011.71875,-75.93299053446714
17031.25,-72.32038220198706
17050.78125,-70.70598671514368
17070.3125,-72.06056278022399
17089.84375,-72.61188380221338
17109.375,-71.4473123529377
17128.90625,-71.67734249810383
17148.4375,-69.24361930806833
17167.96875,-67.73865712433447
17187.5,-69.19011889184705
17207.03125,-68.82429562691847
17226.5625,-68.7922404481931
17246.09375,-70.65677678651471
17265.625,-73.6805082799825
17285.15625,-73.55644606798104
17304.6875,-70.19526995418215
17324.21875,-68.8563719213176
17343.75,-70.97451863600331
17363.28125,-74.01164710114921
17382.8125,-71.99871133499128
17402.34375,-71.75288361800598
17421.875,-74.65343395404571
17441.40625,-89.33918551760526
17460.9375,-73.03823452349549
17480.46875,-71.9138087263847
17500,-72.33178475478822
17519.53125,-73.2076724975377
17539.0625,-77.3592515328175
17558.59375,-72.39972684460379
17578.125,-69.92308032303788
17597.65625,-70.37606822954965
17617.1875,-73.10314754342473
17636.71875,-73.1025227208869
17656.25,-70.72348870462889
17675.78125,-69.29565032054397
17695.3125,-68.74043703921578
17714.84375,-70.09657898050531
17734.375,-72.62514219448691
17753.90625,-73.89602932758518
17773.4375,-74.00279886631633
17792.96875,-73.27198463742053
17812.5,-73.3538380969876
17832.03125,-82.81970359450739
17851.5625,-76.62034304986041
17871.09375,-71.77080029825058
17890.625,-69.06483463272831
17910.15625,-69.02785354295251
17929.6875,-73.59201664617699
17949.21875,-83.96137250685709
17968.75,-73.96350712999615
17988.28125,-71.85252562762975
18007.8125,-75.72286233443235
18027.34375,-81.06774305352431
18046.875,-76.31688922275357
18066.40625,-70.74534052494835
18085.9375,-67.8844926077747
18105.46875,-66.19757031425816
18125,-65.11441774657186
18144.53125,-66.68352016855378
18164.0625,-70.65164063695437
18183.59375,-70.56065820307849
18203.125,-69.41206315514083
18222.65625,-68.5727348326249
18242.1875,-66.48446584439363
18261.71875,-67.58495061525248
18281.25,-69.48976060918994
18300.78125,-69.44347087898657
18320.3125,-68.14622643994531
18339.84375,-67.11695082165582
18359.375,-65.6189011688259
18378.90625,-64.09876130057359
18398.4375,-63.60394599461205
18417.96875,-64.92809963686304
18437.5,-67.33298830295986
18457.03125,-70.35248218728827
18476.5625,-74.65288013106301
18496.09375,-80.69016193255274
18515.625,-107.6996520015967
18535.15625,-87.3783029270315
18554.6875,-84.51735866551374
18574.21875,-76.25215517872859
18593.75,-75.31422063671313
18613.28125,-79.82422053066583
18632.8125,-90.16883541685635
18652.34375,-84.46827199857906
18671.875,-78.45591685550568
18691.40625,-68.93796844085979
18710.9375,-64.97425085925778
18730.46875,-64.21005602891849
18750,-64.13279915452392
18769.53125,-65.78089801742533
18789.0625,-69.41851973592303
18808.59375,-73.61839201610823
18828.125,-80.90862550386753
18847.65625,-91.6253335254239
18867.1875,-83.0180956162209
18886.71875,-81.90466215364046
18906.25,-80.20017196284022
18925.78125,-77.13443522925803
18945.3125,-75.82618865534374
18964.84375,-70.08118301821584
18984.375,-66.61620984728734
19003.90625,-65.79806834758027
19023.4375,-67.69098318758091
19042.96875,-71.1716941524685
19062.5,-77.68518007176947
19082.03125,-83.00115761938002
19101.5625,-80.49001355659959
19121.09375,-78.31947713393097
19140.625,-74.50793837600816
19160.15625,-71.46493288943586
19179.6875,-70.861939701284
19199.21875,-62.11123813144447
19218.75,-51.02320573839661
19238.28125,-46.32092194707865
19257.8125,-45.76502057788473
19277.34375,-45.91274309952139
19296.875,-48.147164825528
19316.40625,-56.87038149321771
19335.9375,-89.09657340698958
19355.46875,-76.68333479254927
19375,-77.69922827081388
19394.53125,-76.80127749912272
19414.0625,-77.28233876246196
19433.59375,-80.91021859030295
19453.125,-90.30772580043433
19472.65625,-82.26451631374272
19492.1875,-76.23862962219636
19511.71875,-78.12029206600425
19531.25,-76.41121256882744
19550.78125,-69.8394426154685
19570.3125,-67.52656808460964
19589.84375,-65.90737139738343
19609.375,-66.60302849656566
19628.90625,-69.61055158405883
19648.4375,-70.43590607434905
19667.96875,-70.90400424925045
19687.5,-71.35366873736439
19707.03125,-70.3658347451957
19726.5625,-72.19198578145014
19746.09375,-74.38888579908004
19765.625,-73.18124909515271
19785.15625,-70.55025008659057
19804.6875,-73.139675965134
19824.21875,-88.06617060202663
19843.75,-84.94300321644809
19863.28125,-76.09505192607079
19882.8125,-73.99621241120444
19902.34375,-70.39165912571674
19921.875,-67.75864815689472
19941.40625,-68.91464429904957
19960.9375,-70.337455015594
19980.46875,-67.47231761485619
20000,-66.43840214690417
20019.53125,-69.7905415044322
20039.0625,-83.28690368086681
20058.59375,-72.61022333848149
20078.125,-68.67293181315412
20097.65625,-71.30794956966879
20117.1875,-79.78163197459141
20136.71875,-73.84963230419282
20156.25,-69.84932857901718
20175.78125,-67.43037336330974
20195.3125,-67.03796894692341
20214.84375,-68.11280112195102
20234.375,-70.24321468656566
20253.90625,-75.16490044207998
20273.4375,-74.20700871971749
20292.96875,-68.52225723878637
20312.5,-65.60902698868129
20332.03125,-64.11295108145914
20351.5625,-63.37992939848549
20371.09375,-64.1464523250899
20390.625,-67.40402266036054
20410.15625,-73.16561853702152
20429.6875,-82.12152043821142
20449.21875,-74.43901247717938
20468.75,-70.02419042740834
20488.28125,-70.46945602434322
20507.8125,-71.56216286187542
20527.34375,-70.55735398278219
20546.875,-69.84153045169609
20566.40625,-69.86693894356821
20585.9375,-69.4607430300738
20605.46875,-69.76463451541596
20625,-71.60924902720352
20644.53125,-74.59119165392818
20664.0625,-78.34298202882682
20683.59375,-77.66408765771092
20703.125,-75.04507684461736
20722.65625,-77.79240743171455
20742.1875,-79.93943791214181
20761.71875,-70.20985146334594
20781.25,-66.34876793321862
20800.78125,-64.92632343293792
20820.3125,-66.63748769204213
20839.84375,-68.95378090711156
20859.375,-68.39611140300427
20878.90625,-66.64402593571258
20898.4375,-65.38316713558771
20917.96875,-65.14884464291528
20937.5,-65.30026794876444
20957.03125,-67.09979856016548
20976.5625,-71.62297577945567
20996.09375,-75.71485973603988
21015.625,-74.4228829187192
21035.15625,-74.34670464718407
21054.6875,-73.30656854648169
21074.21875,-71.43822071496076
21093.75,-72.2985925778442
21113.28125,-75.6359010195592
21132.8125,-74.28286142082884
21152.34375,-71.73550127223572
21171.875,-70.23822929173431
21191.40625,-71.2256296646129
21210.9375,-74.13001178910142
21230.46875,-73.33892831195948
21250,-70.22897185537268
21269.53125,-70.38000836741669
21289.0625,-75.76983003929195
21308.59375,-79.99261562269204
21328.125,-76.65272517131706
21347.65625,-74.36267591521586
21367.1875,-74.34357172411795
21386.71875,-74.44647617893027
21406.25,-70.04604107699906
21425.78125,-67.43156690347898
21445.3125,-67.60553898225601
21464.84375,-67.4220465601217
21484.375,-67.36643332032672
21503.90625,-68.53736089172145
21523.4375,-70.31781310492089
21542.96875,-71.8302368612022
21562.5,-73.92669794873336
21582.03125,-78.83123291721699
21601.5625,-78.47030672623927
21621.09375,-76.51326614032187
21640.625,-75.06577728142747
21660.15625,-79.4274154587595
21679.6875,-83.84039265662147
21699.21875,-76.78815425377032
21718.75,-74.20194745635646
21738.28125,-74.45148551539484
21757.8125,-77.53900018546095
21777.34375,-79.49338365565022
21796.875,-79.82879771710589
21816.40625,-83.83508736283088
21835.9375,-78.54368689482304
21855.46875,-73.62438329404242
21875,-73.02172740442829
21894.53125,-74.48151685691424
21914.0625,-78.85933013348479
21933.59375,-81.78504091645108
21953.125,-87.07789294617653
21972.65625,-90.54567717486313
21992.1875,-81.18350315005904
22011.71875,-73.0949226864317
22031.25,-71.96983418898222
22050.78125,-71.64813403807175
22070.3125,-70.51792104841483
22089.84375,-72.18103989134075
22109.375,-76.46898992657987
22128.90625,-76.83831357770013
22148.4375,-72.14903574801968
22167.96875,-67.81869615163447
22187.5,-66.20902169442191
22207.03125,-66.11198769108739
22226.5625,-67.21908323147387
22246.09375,-72.12228859165404
22265.625,-86.10324334299241
22285.15625,-80.97096411124807
22304.6875,-74.97915900214591
22324.21875,-74.53224981191391
22343.75,-76.21712631428939
22363.28125,-73.69068937795493
22382.8125,-70.45504031916322
22402.34375,-68.24899030625207
22421.875,-69.01119767849318
22441.40625,-71.86209804678839
22460.9375,-69.65592066841695
22480.46875,-68.98800843918524
22500,-71.40403607769554
22519.53125,-72.76564392726713
22539.0625,-70.41129731221312
22558.59375,-69.36884768817892
22578.125,-73.18929590364638
22597.65625,-78.61759829706286
22617.1875,-74.60158179761588
22636.71875,-75.8717404645032
22656.25,-76.96463168892956
22675.78125,-88.56059013068432
22695.3125,-78.44316899257059
22714.84375,-73.29035480518164
22734.375,-70.40501717321361
22753.90625,-70.71076421557449
22773.4375,-73.168919676882
22792.96875,-76.1971640004423
22812.5,-80.66371463959941
22832.03125,-82.93614069674402
22851.5625,-79.98273160417929
22871.09375,-78.27922290291446
22890.625,-75.70154884217332
22910.15625,-76.37158738988742
22929.6875,-77.16411486460169
22949.21875,-70.19426741794663
22968.75,-66.64536489341798
22988.28125,-65.17939419295109
23007.8125,-65.76892488997896
23027.34375,-69.55657652223644
23046.875,-77.56458659429697
23066.40625,-75.62339235515672
23085.9375,-73.95884082817743
23105.46875,-77.48994805894127
23125,-78.07426237179891
23144.53125,-74.45514473970414
23164.0625,-72.13791825722471
23183.59375,-69.85339471183744
23203.125,-68.90831146720798
23222.65625,-71.6684994251508
23242.1875,-78.21586044337145
23261.71875,-87.88635900618888
23281.25,-73.52103729242531
23300.78125,-69.53542167871295
23320.3125,-69.16795142594894
23339.84375,-70.41100713278014
23359.375,-68.92908359980257
23378.90625,-67.78143485753226
23398.4375,-68.61835513576207
23417.96875,-70.42006286870965
23437.5,-73.10635768709217
23457.03125,-77.47727044606873
23476.5625,-74.18830309766409
23496.09375,-74.55900473398057
23515.625,-72.11789516532673
23535.15625,-70.43938905519701
23554.6875,-70.91111414338697
23574.21875,-72.23661936227171
23593.75,-74.18857307423841
23613.28125,-73.74773079186271
23632.8125,-71.53170359074434
23652.34375,-72.53142126251481
23671.875,-77.7845448476051
23691.40625,-80.22576016604972
23710.9375,-79.10918432229565
23730.46875,-79.2799156893705
23750,-76.65265162111561
23769.53125,-74.40500519356107
23789.0625,-75.9273844845986
23808.59375,-77.65747957193702
23828.125,-78.91357320596096
23847.65625,-79.95886041561241
23867.1875,-83.02819494956522
23886.71875,-77.35227737811209
23906.25,-72.90726772603372
23925.78125,-71.98742802020904
23945.3125,-71.53652968376385
23964.84375,-70.48140844503325
23984.375,-70.14455404387641
24003.90625,-71.70350385616813
24023.4375,-75.69869848110616
24042.96875,-84.74355148550943
24062.5,-70.36567488431436
24082.03125,-66.17697306753067
24101.5625,-65.45520891015559
24121.09375,-66.18755595646999
24140.625,-67.90055009906578
24160.15625,-69.22675867983541
24179.6875,-69.7033253844232
24199.21875,-69.39344497299574
24218.75,-69.03236368506997
24238.28125,-70.97087185752972
24257.8125,-74.06713851376047
24277.34375,-74.36897975820348
24296.875,-74.70708114627929
24316.40625,-73.73478172878957
24335.9375,-73.50128885539976
24355.46875,-75.78586973227283
24375,-76.87243371776118
24394.53125,-75.54368665191828
24414.0625,-71.41052689181656
24433.59375,-66.18116192617228
24453.125,-64.00943698750281
24472.65625,-64.15562644960072
24492.1875,-67.06399796111739
24511.71875,-75.21949857829368
24531.25,-85.57721801103628
24550.78125,-77.77191121590319
24570.3125,-80.60036415697171
24589.84375,-86.18873530942416
24609.375,-75.6549050047204
24628.90625,-72.20659349789499
24648.4375,-68.7705775721352
24667.96875,-66.14416923378522
24687.5,-66.15284864781745
24707.03125,-68.74419278025086
24726.5625,-73.45849875707863
24746.09375,-80.38117159997243
24765.625,-89.90431170642498
24785.15625,-79.30432122232011
24804.6875,-72.54519952456749
24824.21875,-69.55251760144134
24843.75,-69.49705668049577
24863.28125,-71.17034142998727
24882.8125,-73.29706456688663
24902.34375,-74.83326086748923
24921.875,-77.66724474002154
24941.40625,-74.82758389731553
24960.9375,-71.00001992309728
24980.46875,-69.2928336758025
25000,-69.47380787057247
25019.53125,-70.3128463117211
25039.0625,-70.48331420234092
25058.59375,-73.40072245361395
25078.125,-80.05548857080046
25097.65625,-75.6611210755719
25117.1875,-70.44341540146894
25136.71875,-68.42754834902931
25156.25,-68.69398583162521
25175.78125,-69.93965668817155
25195.3125,-69.54961224555537
25214.84375,-72.61574827789602
25234.375,-75.55638932525605
25253.90625,-72.85012623454026
25273.4375,-72.49122423073317
25292.96875,-72.99386011793013
25312.5,-71.36903999773668
25332.03125,-70.62733797376059
25351.5625,-71.93379624508781
25371.09375,-73.60972652790369
25390.625,-83.47760065221485
25410.15625,-79.56612354241098
25429.6875,-77.25950750815313
25449.21875,-77.176920208501
25468.75,-76.04439995332341
25488.28125,-73.75367604271139
25507.8125,-75.67463849312512
25527.34375,-91.07194440771133
25546.875,-77.42980729337856
25566.40625,-73.1375812818022
25585.9375,-72.96789700740727
25605.46875,-76.4588044798471
25625,-77.97059036797027
25644.53125,-67.85556111969359
25664.0625,-65.02822227235276
25683.59375,-64.87577392226945
25703.125,-65.89940385631169
25722.65625,-66.87070019737199
25742.1875,-68.90425560345247
25761.71875,-70.89857210326912
25781.25,-70.4038323463088
25800.78125,-67.90097577132647
25820.3125,-66.03650020606699
25839.84375,-66.04381357156016
25859.375,-66.8519316985321
25878.90625,-67.35547414995699
25898.4375,-66.38097308447161
25917.96875,-65.73917049588437
25937.5,-67.00445530544098
25957.03125,-68.3744335420696
25976.5625,-69.48189303201646
25996.09375,-70.17676838875343
26015.625,-70.03221233770883
26035.15625,-71.82202532321109
26054.6875,-76.89873870173726
26074.21875,-77.13591168713663
26093.75,-73.73267503702677
26113.28125,-74.63055294363788
26132.8125,-79.44247125856667
26152.34375,-87.87750458889109
26171.875,-82.81333607117575
26191.40625,-74.50920517798239
26210.9375,-73.93132374159323
26230.46875,-79.57677652804682
26250,-89.25209482147889
26269.53125,-86.67287701599284
26289.0625,-82.65978314311403
26308.59375,-76.67650253082766
26328.125,-73.43977286146378
26347.65625,-73.93837167442909
26367.1875,-75.9158627313585
26386.71875,-77.1510685213388
26406.25,-74.19758803201597
26425.78125,-76.6949790129629
26445.3125,-84.28741801187697
26464.84375,-84.02668549031057
26484.375,-80.5339921070568
26503.90625,-77.0580650570231
26523.4375,-75.07862212481476
26542.96875,-80.83439388834046
26562.5,-84.88231967578216
26582.03125,-78.06878404828143
26601.5625,-73.76744935545057
26621.09375,-71.66316716194116
26640.625,-73.02483764306713
26660.15625,-76.44711583818098
26679.6875,-70.58041278946402
26699.21875,-66.81571787691172
26718.75,-65.47305778154035
26738.28125,-65.93010175600961
26757.8125,-67.19625727157353
26777.34375,-68.66775427412665
26796.875,-70.98140291370689
26816.40625,-71.35045892954996
26835.9375,-71.31354096045727
26855.46875,-73.69047323817858
26875,-75.73230950969487
26894.53125,-77.18432837129205
26914.0625,-78.277376246404
26933.59375,-74.20549509561572
26953.125,-68.94024723978775
26972.65625,-65.91087420354052
26992.1875,-64.60019105869186
27011.71875,-64.50628631456708
27031.25,-66.71762047437575
27050.78125,-70.42775425550795
27070.3125,-74.78912323923173
27089.84375,-84.42344499651612
27109.375,-82.67400134068404
27128.90625,-76.52514427585268
27148.4375,-76.40394997189486
27167.96875,-73.0842469433791
27187.5,-68.1491110896896
27207.03125,-66.44633116397404
27226.5625,-66.19027801527609
27246.09375,-68.07739630921259
27265.625,-74.16633781498568
27285.15625,-76.83138930405157
27304.6875,-73.66827582600494
27324.21875,-70.83095121097925
27343.75,-68.84401889044318
27363.28125,-68.28241995532008
27382.8125,-67.59398391198741
27402.34375,-67.06403246466269
27421.875,-67.29880619506078
27441.40625,-67.23021359718997
27460.9375,-68.07715344486219
27480.46875,-70.86567613636495
27500,-71.32287289170714
27519.53125,-69.46875338799967
27539.0625,-70.01836620506889
27558.59375,-72.62577896470746
27578.125,-77.3143939681986
27597.65625,-90.42597675515484
27617.1875,-78.84875638930359
27636.71875,-87.3266231829315
27656.25,-73.85510516684248
27675.78125,-69.95446823308102
27695.3125,-69.68172513760116
27714.84375,-72.42276466655628
27734.375,-72.99757170288549
27753.90625,-71.53869175661734
27773.4375,-70.8324496953245
27792.96875,-69.57108224920384
27812.5,-69.82506259277437
27832.03125,-72.66163092750156
27851.5625,-72.18330762889047
27871.09375,-71.00086007853469
27890.625,-69.08084912467174
27910.15625,-66.94598628447069
27929.6875,-68.23348788533283
27949.21875,-70.9043456880966
27968.75,-74.32957192303728
27988.28125,-76.68157581182805
28007.8125,-71.31819268114124
28027.34375,-70.68434387894133
28046.875,-74.40746121390363
28066.40625,-81.74542711760638
28085.9375,-77.40856911797607
28105.46875,-71.66674538946913
28125,-72.89093783623444
28144.53125,-74.68237019717752
28164.0625,-73.37467910059449
28183.59375,-70.83692466477237
28203.125,-69.27443846032277
28222.65625,-67.79995824684222
28242.1875,-67.48257927881659
28261.71875,-67.78206775329072
28281.25,-67.57970423222426
28300.78125,-68.35169934906803
28320.3125,-69.18703376606503
28339.84375,-70.33339649529464
28359.375,-73.56591543678201
28378.90625,-77.69638956897408
28398.4375,-72.77769697846551
28417.96875,-70.35807851465862
28437.5,-67.3561830579913
28457.03125,-65.82312327158553
28476.5625,-66.34005210086698
28496.09375,-66.91454102178457
28515.625,-67.42955680055024
28535.15625,-69.42450332604051
28554.6875,-76.30625323699432
28574.21875,-86.84458859007775
28593.75,-76.99995033559557
28613.28125,-72.40868047110665
28632.8125,-70.08064963790056
28652.34375,-68.19147341343839
28671.875,-67.65471899665602
28691.40625,-68.91003383862363
28710.9375,-70.76978377589754
28730.46875,-73.74903802875713
28750,-75.35181988183773
28769.53125,-76.38695097141247
28789.0625,-81.66392502394025
28808.59375,-81.56632889009072
28828.125,-76.46584355367864
28847.65625,-76.43375993038273
28867.1875,-75.86251144263127
28886.71875,-75.57259435982093
28906.25,-77.63423389914939
28925.78125,-75.21760561418371
28945.3125,-73.60660141633127
28964.84375,-73.89001704035211
28984.375,-75.58748444241216
29003.90625,-78.1129502690624
29023.4375,-70.91218117142508
29042.96875,-67.00448956733536
29062.5,-64.6743817948082
29082.03125,-63.91988932770509
29101.5625,-64.21385951335448
29121.09375,-65.4131026526299
29140.625,-67.11072920673055
29160.15625,-67.79179393634854
29179.6875,-68.60897867719727
29199.21875,-70.59460367022994
29218.75,-74.0712491164618
29238.28125,-80.61698386754897
29257.8125,-76.12719250837948
29277.34375,-74.25873790901011
29296.875,-74.51262555888688
29316.40625,-73.90593457833695
29335.9375,-76.08083997640597
29355.46875,-71.77980779273575
29375,-67.46146677139895
29394.53125,-66.68826626310911
29414.0625,-69.02621906746921
29433.59375,-73.34196275388828
29453.125,-74.87316085509912
29472.65625,-73.36915505644286
29492.1875,-74.8558481688961
29511.71875,-76.35490909837296
29531.25,-74.23754007024955
29550.78125,-69.23101402160759
29570.3125,-67.56178728198356
29589.84375,-68.08752943486436
29609.375,-70.9163768155256
29628.90625,-78.31436246164348
29648.4375,-83.36674165434081
29667.96875,-74.95838603456114
29687.5,-73.41166300024319
29707.03125,-73.56207319854752
29726.5625,-75.21305998173888
29746.09375,-76.55692280129449
29765.625,-73.93292639938967
29785.15625,-71.93686288118087
29804.6875,-71.80219983012748
29824.21875,-72.79660892378588
29843.75,-74.34916677738541
29863.28125,-76.66210927060884
29882.8125,-74.85371046676488
29902.34375,-71.46617807007621
29921.875,-71.27354323967327
29941.40625,-70.38851244143152
29960.9375,-68.91586369220084
29980.46875,-68.96683420029279
30000,-68.22684826486341
30019.53125,-68.50814009291702
30039.0625,-71.52152679944591
30058.59375,-75.04362023378198
30078.125,-69.73734869317886
30097.65625,-66.71999367462902
30117.1875,-68.13853165804096
30136.71875,-71.35890136100184
30156.25,-71.56943589903919
30175.78125,-73.20745243067691
30195.3125,-76.16200856269246
30214.84375,-76.37839853389377
30234.375,-73.71915173225601
30253.90625,-73.51945362234076
30273.4375,-78.54268417162351
30292.96875,-85.3539389341064
30312.5,-84.66217386980483
30332.03125,-79.68723025674949
30351.5625,-80.34550914050394
30371.09375,-83.06986800718045
30390.625,-78.37553789847536
30410.15625,-79.12306541358903
30429.6875,-84.3205271134938
30449.21875,-88.81830956753842
30468.75,-82.65165913914176
30488.28125,-83.58966502868178
30507.8125,-83.9949268863131
30527.34375,-79.02524359191078
30546.875,-75.0652964983347
30566.40625,-75.29492006083943
30585.9375,-76.02219670336268
30605.46875,-74.64246125533414
30625,-75.6467394702933
30644.53125,-76.72019552723245
30664.0625,-75.12089667942477
30683.59375,-74.2485059782386
30703.125,-73.99183461382331
30722.65625,-73.53515233765609
30742.1875,-74.12088534806477
30761.71875,-75.80203281243926
30781.25,-78.00803484767027
30800.78125,-77.27935852148806
30820.3125,-75.04472093776451
30839.84375,-73.49774079085465
30859.375,-72.04806392420522
30878.90625,-71.61920081939324
30898.4375,-75.01370008167149
30917.96875,-82.28869801298663
30937.5,-85.04391092102145
30957.03125,-78.84692493185361
30976.5625,-75.18234333393524
30996.09375,-77.05218225944778
31015.625,-89.90487534459936
31035.15625,-80.20554612934446
31054.6875,-72.24715732057868
31074.21875,-70.61626070893035
31093.75,-72.92203743435175
31113.28125,-72.97313488829404
31132.8125,-74.37653018477786
31152.34375,-75.4780989666085
31171.875,-71.47673387972989
31191.40625,-68.51660713994492
31210.9375,-67.74225844144753
31230.46875,-69.24054941350568
31250,-71.92838933612572
31269.53125,-71.79214726432417
31289.0625,-71.19646669762274
31308.59375,-71.33220264347942
31328.125,-69.6400912192407
31347.65625,-67.54589563782426
31367.1875,-66.33360371555058
31386.71875,-66.0790533146253
31406.25,-67.41344001810528
31425.78125,-71.40938556705864
31445.3125,-71.25687959519902
31464.84375,-67.70733024672205
31484.375,-67.81453629715442
31503.90625,-68.74186293273432
31523.4375,-72.73724714374511
31542.96875,-76.25271250381616
31562.5,-72.04015840445274
31582.03125,-70.22937707288148
31601.5625,-67.73344065729573
31621.09375,-65.62339108733332
31640.625,-63.9921283054917
31660.15625,-64.21040020716266
31679.6875,-68.06641261019033
31699.21875,-72.88955742872506
31718.75,-70.38480843694728
31738.28125,-68.19215223559064
31757.8125,-69.66975175642628
31777.34375,-76.56299087227308
31796.875,-76.38663310310791
31816.40625,-70.21422228734626
31835.9375,-68.02623483848716
31855.46875,-69.39067651993544
31875,-73.96800963003011
31894.53125,-83.74445072161514
31914.0625,-107.6990417558243
31933.59375,-100.8852320761443
31953.125,-91.12854811718725
31972.65625,-87.32025497584988
31992.1875,-80.00528089081524
32011.71875,-74.87708108097129
32031.25,-74.82438685751789
32050.78125,-70.34634350388112
32070.3125,-57.15917512082793
32089.84375,-53.71066884028263
32109.375,-53.13025005639751
32128.90625,-53.85743395768746
32148.4375,-59.62992048654465
32167.96875,-88.66995397651186
32187.5,-69.57094520818561
32207.03125,-66.96905483589265
32226.5625,-66.79754539425373
32246.09375,-68.12276282238324
32265.625,-68.88717338016232
32285.15625,-71.02759830139816
32304.6875,-75.96724838131851
32324.21875,-77.96575391476473
32343.75,-80.19236712029489
32363.28125,-78.36168510320506
32382.8125,-76.72517224771524
32402.34375,-78.59839643798091
32421.875,-88.6023157561483
32441.40625,-85.18381379232184
32460.9375,-91.54339309706384
32480.46875,-79.26122485360958
32500,-79.66839964808477
32519.53125,-81.1721769337662
32539.0625,-77.78932139921656
32558.59375,-79.62902405917319
32578.125,-76.26830190799848
32597.65625,-72.42115417259198
32617.1875,-75.72074504310991
32636.71875,-77.65400913909301
32656.25,-72.92678766613695
32675.78125,-70.46642554334211
32695.3125,-73.02448658777183
32714.84375,-86.85622466787089
32734.375,-78.51660461103407
32753.90625,-75.34362716722502
32773.4375,-75.35554297918451
32792.96875,-79.24741180409634
32812.5,-79.64279291616334
32832.03125,-76.72720395009938
32851.5625,-73.8018851238561
32871.09375,-70.14915188307702
32890.625,-68.85108756041544
32910.15625,-70.21905224412579
32929.6875,-72.27861883643814
32949.21875,-73.45035760560678
32968.75,-76.10442013860143
32988.28125,-79.63356395977848
33007.8125,-83.60796915152976
33027.34375,-83.88140632769664
33046.875,-74.88699579701535
33066.40625,-77.39146414588902
33085.9375,-80.74324443557643
33105.46875,-85.16458792879266
33125,-85.72011227362108
33144.53125,-89.26330209171495
33164.0625,-79.7314780409649
33183.59375,-74.09393916014777
33203.125,-69.33985078902215
33222.65625,-66.00577951384166
33242.1875,-65.61797624414443
33261.71875,-66.06393320041298
33281.25,-68.49286961566898
33300.78125,-75.66326526251289
33320.3125,-77.3414308231384
33339.84375,-74.83318865906155
33359.375,-72.99597615025108
33378.90625,-73.70922067205566
33398.4375,-72.82181685621359
33417.96875,-74.15502266165369
33437.5,-76.89909732122315
33457.03125,-76.49557784937875
33476.5625,-81.78826964503921
33496.09375,-99.55909748155717
33515.625,-84.30271480108826
33535.15625,-82.76464470217124
33554.6875,-82.77415041570292
33574.21875,-75.56843311935792
33593.75,-72.09989987287292
33613.28125,-69.94352118173431
33632.8125,-68.54056356071708
33652.34375,-68.31470927469688
33671.875,-69.02721866880586
33691.40625,-70.28260840516023
33710.9375,-72.48025951168644
33730.46875,-71.01068478047533
33750,-70.51473233550527
33769.53125,-70.96105782179458
33789.0625,-73.10516093760629
33808.59375,-74.90461046626633
33828.125,-75.09970970886287
33847.65625,-73.51837747847433
33867.1875,-69.49886622373933
33886.71875,-66.803844359089
33906.25,-67.06443414707033
33925.78125,-68.44843572382749
33945.3125,-67.34860007021339
33964.84375,-66.93745418420404
33984.375,-68.82093028878927
34003.90625,-74.24787589582108
34023.4375,-84.11029911312849
34042.96875,-74.82711420029018
34062.5,-72.98325737054031
34082.03125,-73.57362993627555
34101.5625,-73.232848454227
34121.09375,-76.52818724396423
34140.625,-81.51370483509801
34160.15625,-89.19159197444714
34179.6875,-86.47774722562335
34199.21875,-79.56865077624064
34218.75,-72.99231345958225
34238.28125,-68.89183290718927
34257.8125,-67.68023348142938
34277.34375,-67.77822693268449
34296.875,-69.63288078838512
34316.40625,-72.38606738123089
34335.9375,-76.90994720170414
34355.46875,-92.11791819923948
34375,-83.05901864935311
34394.53125,-76.15308585691906
34414.0625,-75.19133959287295
34433.59375,-78.65554425180997
34453.125,-80.61205264522874
34472.65625,-77.84543426674045
34492.1875,-77.09717871304109
34511.71875,-76.11600654816624
34531.25,-71.85562734186118
34550.78125,-69.12975344733388
34570.3125,-68.99687693512676
34589.84375,-69.85224878119466
34609.375,-70.65016711782738
34628.90625,-72.4943269942531
34648.4375,-76.64726267279421
34667.96875,-76.08601178164535
34687.5,-69.01979548973043
34707.03125,-66.30327640973697
34726.5625,-65.48496661099026
34746.09375,-66.19899072891113
34765.625,-67.85112626243779
34785.15625,-68.57335504524794
34804.6875,-70.27055528582972
34824.21875,-72.27115727062657
34843.75,-73.34762480077228
34863.28125,-75.92720554782161
34882.8125,-85.92189565311016
34902.34375,-76.03801992391568
34921.875,-72.53890684866535
34941.40625,-72.18533474443157
34960.9375,-75.13852201964585
34980.46875,-85.03066728734184
35000,-77.1990593367662
35019.53125,-71.44096482542312
35039.0625,-67.90760977320393
35058.59375,-66.46112164891068
35078.125,-66.63195857723794
35097.65625,-68.24244317209278
35117.1875,-69.59718102529223
35136.71875,-68.79406757475219
35156.25,-68.3859458022573
35175.78125,-69.27769818779454
35195.3125,-72.20825899428134
35214.84375,-78.65532120911296
35234.375,-72.23959189122444
35253.90625,-71.74368591337046
35273.4375,-72.1482728425011
35292.96875,-73.42192724997452
35312.5,-84.17508468215183
35332.03125,-83.9781937273998
35351.5625,-82.10076509532809
35371.09375,-87.21429517702316
35390.625,-79.80725542919478
35410.15625,-75.51714595264261
35429.6875,-74.39792191188781
35449.21875,-72.09512905282284
35468.75,-71.6745653100066
35488.28125,-70.6611312381835
35507.8125,-69.22331907846622
35527.34375,-71.11271580877872
35546.875,-71.46279638246807
35566.40625,-68.9434521416415
35585.9375,-67.40261959259277
35605.46875,-66.34722878110753
35625,-66.3903416728655
35644.53125,-67.77125241965845
35664.0625,-70.32537608825226
35683.59375,-74.01592517903637
35703.125,-77.07524217664229
35722.65625,-72.84371540940694
35742.1875,-70.3883913806627
35761.71875,-71.4199744047269
35781.25,-73.7473927389787
35800.78125,-77.52857197473438
35820.3125,-79.73430783601972
35839.84375,-74.50515948838726
35859.375,-71.71109966039924
35878.90625,-70.29636436490067
35898.4375,-71.16044449410069
35917.96875,-74.53355547062228
35937.5,-78.05523062987791
35957.03125,-81.29162400229298
35976.5625,-93.77504838478087
35996.09375,-86.80235620297856
36015.625,-80.94911524414923
36035.15625,-81.24961370486324
36054.6875,-84.17272692714432
36074.21875,-77.22356484880504
36093.75,-76.43878825155267
36113.28125,-82.47961006375861
36132.8125,-80.32146371689322
36152.34375,-72.58972501098927
36171.875,-72.77593356223412
36191.40625,-76.03076357514497
36210.9375,-76.42637314908603
36230.46875,-76.00596283604955
36250,-74.09580624946064
36269.53125,-75.77264316049261
36289.0625,-76.71561033399382
36308.59375,-71.0880688084591
36328.125,-70.41796691746245
36347.65625,-70.5478793118539
36367.1875,-70.7711540479857
36386.71875,-71.46573365151117
36406.25,-71.74883883910238
36425.78125,-71.57388155443427
36445.3125,-70.93779784842422
36464.84375,-70.4198144638312
36484.375,-68.70228944071626
36503.90625,-66.28555809827282
36523.4375,-65.01052626258429
36542.96875,-65.6204477495519
36562.5,-67.99738906280555
36582.03125,-71.37488025292868
36601.5625,-74.70369233873365
36621.09375,-75.37716508796949
36640.625,-78.04089645677089
36660.15625,-74.1826206930519
36679.6875,-70.79582705669816
36699.21875,-69.00643337352319
36718.75,-71.05630873224817
36738.28125,-75.40821519407689
36757.8125,-74.90094754345972
36777.34375,-71.7775988069446
36796.875,-71.22264706059778
36816.40625,-77.39471364392755
36835.9375,-83.63212760932443
36855.46875,-75.82201727988297
36875,-77.47915816261199
36894.53125,-82.06214361712748
36914.0625,-77.08059744193116
36933.59375,-74.19832568517828
36953.125,-80.1589917869054
36972.65625,-96.30744767426833
36992.1875,-90.62671107205553
37011.71875,-79.73773461336938
37031.25,-74.83060114208055
37050.78125,-73.53038699422805
37070.3125,-76.97468828377852
37089.84375,-82.29538252045336
37109.375,-71.31475210595953
37128.90625,-68.5426545143672
37148.4375,-66.92730129501368
37167.96875,-67.40667703984661
37187.5,-68.99280883025384
37207.03125,-71.24219458589432
37226.5625,-76.08948657639986
37246.09375,-84.94358927228251
37265.625,-80.05265261597616
37285.15625,-73.60692445200425
37304.6875,-70.79408634027706
37324.21875,-70.72759348915261
37343.75,-74.58512882215454
37363.28125,-75.19755352093873
37382.8125,-73.55764275843926
37402.34375,-68.95416518576226
37421.875,-66.88680839343859
37441.40625,-68.152441184097
37460.9375,-70.25048506400238
37480.46875,-72.21394627102893
37500,-74.98199663660641
37519.53125,-73.40890122139928
37539.0625,-71.91113971634766
37558.59375,-70.48771545174721
37578.125,-69.91283999147723
37597.65625,-72.92193732795988
37617.1875,-80.82415875841208
37636.71875,-83.16375288410723
37656.25,-76.32696809363644
37675.78125,-73.45508527496457
37695.3125,-71.08439375131864
37714.84375,-69.92178880613582
37734.375,-71.85262954059928
37753.90625,-74.23024237535031
37773.4375,-75.92505142688222
37792.96875,-72.66370922234655
37812.5,-68.75764577974972
37832.03125,-67.44469103573552
37851.5625,-65.94700253660343
37871.09375,-65.89159402910236
37890.625,-67.54060903749408
37910.15625,-70.36742138587974
37929.6875,-74.84528224782365
37949.21875,-75.3546580525021
37968.75,-70.78566949103569
37988.28125,-70.01965122050859
38007.8125,-73.56986976089524
38027.34375,-75.77094639562191
38046.875,-81.85862231347862
38066.40625,-75.32498353586631
38085.9375,-69.87027273606115
38105.46875,-68.74244196766927
38125,-66.92145768501669
38144.53125,-66.4123681978292
38164.0625,-67.68383738945063
38183.59375,-67.82139176884856
38203.125,-67.81372700830137
38222.65625,-68.42686638137836
38242.1875,-68.46382549530982
38261.71875,-67.94986131128263
38281.25,-66.85276564583147
38300.78125,-65.66052445666992
38320.3125,-66.07837261719376
38339.84375,-67.82478689882532
38359.375,-69.60847748152936
38378.90625,-71.89721166834067
38398.4375,-76.2093872317631
38417.96875,-77.685370952767
38437.5,-77.07606249325815
38457.03125,-72.36907287627898
38476.5625,-69.64876873017489
38496.09375,-68.02769120440348
38515.625,-67.69343180473726
38535.15625,-69.5963301385013
38554.6875,-71.57375777320921
38574.21875,-72.03766956522738
38593.75,-74.01073406042224
38613.28125,-75.13282012335917
38632.8125,-73.58464993445594
38652.34375,-74.65309942832012
38671.875,-75.10123418459597
38691.40625,-74.69128124375102
38710.9375,-74.28023137396718
38730.46875,-77.66285647100658
38750,-79.57620236676593
38769.53125,-84.58545355560942
38789.0625,-80.71143443224301
38808.59375,-78.46336313827803
38828.125,-74.75000249053389
38847.65625,-75.78022146214684
38867.1875,-83.52443058195227
38886.71875,-84.59480867653112
38906.25,-76.44219398513725
38925.78125,-75.43688911975616
38945.3125,-76.2579662956599
38964.84375,-82.34330603881504
38984.375,-81.64718470305546
39003.90625,-73.5046552167323
39023.4375,-70.90989339613147
39042.96875,-69.51652386868125
39062.5,-67.76857463516157
39082.03125,-66.49932666332953
39101.5625,-67.03795450504143
39121.09375,-68.56728733956642
39140.625,-74.15060908045817
39160.15625,-81.1833442320073
39179.6875,-74.40862813693683
39199.21875,-76.25496207121608
39218.75,-76.41197471453951
39238.28125,-75.87331207266766
39257.8125,-76.05597284639209
39277.34375,-76.41818650887151
39296.875,-73.20519775122332
39316.40625,-70.13508025232858
39335.9375,-70.47325576021264
39355.46875,-73.08489885924148
39375,-75.89258652234336
39394.53125,-84.92971069757324
39414.0625,-80.17000921959794
39433.59375,-79.15519249635604
39453.125,-82.13505214206177
39472.65625,-83.78870558761935
39492.1875,-76.24707156182939
39511.71875,-72.52001478824091
39531.25,-71.29367393080058
39550.78125,-74.07070477268753
39570.3125,-80.84893067279683
39589.84375,-82.83125431630565
39609.375,-74.06871012124641
39628.90625,-73.18598933407236
39648.4375,-75.00380217928713
39667.96875,-76.24672771580867
39687.5,-81.75897045076783
39707.03125,-81.26226519680203
39726.5625,-76.63763894601848
39746.09375,-78.47495531646025
39765.625,-76.07863645740819
39785.15625,-74.09100831681938
39804.6875,-73.05738035539697
39824.21875,-74.03267606339826
39843.75,-78.34266280061378
39863.28125,-77.32345350999401
39882.8125,-74.91176829997634
39902.34375,-74.17617906282631
39921.875,-72.84347461653859
39941.40625,-70.4282910626477
39960.9375,-66.7171960052514
39980.46875,-65.21321589519006
40000,-66.11318506953225
40019.53125,-68.34086361576267
40039.0625,-72.45717245123114
40058.59375,-74.905938667062
40078.125,-74.22543185601509
40097.65625,-76.2066558687674
40117.1875,-76.76428701166161
40136.71875,-75.45728471835966
40156.25,-71.43827205049544
40175.78125,-71.94223494182167
40195.3125,-73.5240033612033
40214.84375,-74.105593470884
40234.375,-80.30324938953584
40253.90625,-88.49467655142406
40273.4375,-86.5813823737461
40292.96875,-81.05915803115226
40312.5,-71.02682207213105
40332.03125,-66.62687741897592
40351.5625,-64.79952965505993
40371.09375,-65.38792755608667
40390.625,-67.60695955222782
40410.15625,-70.95272862624923
40429.6875,-74.84545568299168
40449.21875,-73.01295759245298
40468.75,-69.56483607705341
40488.28125,-68.24761189713929
40507.8125,-68.15967648164042
40527.34375,-70.82004233436217
40546.875,-74.93606161027803
40566.40625,-75.96938773168434
40585.9375,-76.37745606435121
40605.46875,-76.36444435052616
40625,-73.18835842042958
40644.53125,-71.84006833488213
40664.0625,-72.60479912471871
40683.59375,-75.06567191535352
40703.125,-83.2695925740061
40722.65625,-82.01038228123136
40742.1875,-74.8599141334137
40761.71875,-72.58312610443045
40781.25,-72.19502240357222
40800.78125,-73.11989011180466
40820.3125,-72.42936438120152
40839.84375,-71.31133748703232
40859.375,-70.48111466489968
40878.90625,-69.37453923785539
40898.4375,-71.0174735635634
40917.96875,-76.08213541107725
40937.5,-83.55352989480107
40957.03125,-77.91324495697187
40976.5625,-73.1188534257396
40996.09375,-72.19494919968669
41015.625,-73.34104635247905
41035.15625,-72.35539886860407
41054.6875,-69.56220229874839
41074.21875,-69.2537740483519
41093.75,-69.87407233472851
41113.28125,-68.80614119205946
41132.8125,-67.50969796277539
41152.34375,-67.0536338326375
41171.875,-68.71443627525579
41191.40625,-72.15015286150435
41210.9375,-75.41410588926554
41230.46875,-75.47580277055629
41250,-74.15869800708764
41269.53125,-74.18508904281627
41289.0625,-70.46528544683949
41308.59375,-68.46455299702652
41328.125,-69.3180830196611
41347.65625,-71.62119206614696
41367.1875,-79.8092847275564
41386.71875,-78.1986247391882
41406.25,-72.6840669409024
41425.78125,-69.59461862170257
41445.3125,-69.52308142576675
41464.84375,-70.5926432601734
41484.375,-73.89857848134167
41503.90625,-80.91538255683352
41523.4375,-81.31038236118269
41542.96875,-77.79551819023604
41562.5,-72.38494737878538
41582.03125,-69.56424959913464
41601.5625,-67.79080166068601
41621.09375,-65.49372377142964
41640.625,-64.5111004868195
41660.15625,-64.62453379769772
41679.6875,-65.82203115897448
41699.21875,-70.64337154091947
41718.75,-79.62198370500383
41738.28125,-74.78837397427823
41757.8125,-71.69481988389489
41777.34375,-71.39497161399592
41796.875,-74.10931517697927
41816.40625,-78.22997907728757
41835.9375,-84.59905451582827
41855.46875,-76.62482925405625
41875,-73.45291864885111
41894.53125,-75.51975824527415
41914.0625,-87.06278216108083
41933.59375,-85.38065526097556
41953.125,-83.59670040694911
41972.65625,-79.27437291839952
41992.1875,-78.90326599886815
42011.71875,-71.11511241191455
42031.25,-68.52477301167792
42050.78125,-69.40739657094755
42070.3125,-70.90977332464794
42089.84375,-73.17554927669707
42109.375,-80.85967932420972
42128.90625,-85.05890123612684
42148.4375,-75.94519087619167
42167.96875,-73.35805666319544
42187.5,-71.08634793154212
42207.03125,-67.77357448661418
42226.5625,-66.33377385505982
42246.09375,-67.48400682806387
42265.625,-71.46247674983039
42285.15625,-77.6971705501343
42304.6875,-80.6790847129392
42324.21875,-79.64624822778214
42343.75,-78.76169287353193
42363.28125,-73.90184130061692
42382.8125,-70.06120719067881
42402.34375,-68.53940555043218
42421.875,-70.83220724153193
42441.40625,-77.62619539278064
42460.9375,-83.02028192680793
42480.46875,-82.10682512862009
42500,-80.98739472691121
42519.53125,-77.60160721529755
42539.0625,-77.21526746381714
42558.59375,-87.42135472636016
42578.125,-78.32026026272064
42597.65625,-72.71532545000076
42617.1875,-70.47051269902795
42636.71875,-69.73795902371936
42656.25,-70.9057878665491
42675.78125,-74.7465456072497
42695.3125,-87.11210861997613
42714.84375,-77.83730188600923
42734.375,-73.17409611924278
42753.90625,-74.29241096770008
42773.4375,-77.88848447351059
42792.96875,-80.70060055609281
42812.5,-75.59059376645516
42832.03125,-72.6377337403609
42851.5625,-71.28317389889196
42871.09375,-71.8166794125421
42890.625,-74.06217837382874
42910.15625,-76.45486238971409
42929.6875,-82.40973361156135
42949.21875,-84.9380140053251
42968.75,-77.45831414006896
42988.28125,-75.02832879273798
43007.8125,-75.26047601251467
43027.34375,-77.16957716310165
43046.875,-86.45498183816086
43066.40625,-80.97719817556752
43085.9375,-75.31182208672382
43105.46875,-73.7048241996459
43125,-73.35528388740534
43144.53125,-70.2505056913943
43164.0625,-68.26710059957738
43183.59375,-67.8621301065663
43203.125,-67.38510296843849
43222.65625,-68.57784290219053
43242.1875,-70.65068619363021
43261.71875,-71.86313247109241
43281.25,-72.00198149137
43300.78125,-71.85218882207633
43320.3125,-69.38105892428736
43339.84375,-65.99118834014374
43359.375,-65.41474837487212
43378.90625,-66.54666098628201
43398.4375,-68.31971142964687
43417.96875,-67.97336900235366
43437.5,-66.5876789663706
43457.03125,-66.75258233762494
43476.5625,-70.10425890938349
43496.09375,-78.04044356914144
43515.625,-77.47217327466254
43535.15625,-76.33955772458309
43554.6875,-79.60892527208283
43574.21875,-81.80896177969169
43593.75,-81.26956586114753
43613.28125,-77.45035992893573
43632.8125,-79.05961647777534
43652.34375,-79.42632453815
43671.875,-73.32498895615522
43691.40625,-70.00241275874953
43710.9375,-69.27306739188248
43730.46875,-69.92052102827769
43750,-70.49491456302043
43769.53125,-70.71512006049184
43789.0625,-73.41137392207554
43808.59375,-77.10763189025548
43828.125,-77.6164888765185
43847.65625,-79.87519832368478
43867.1875,-80.35456801315304
43886.71875,-78.29310777545773
43906.25,-79.32275789316198
43925.78125,-82.23973519813373
43945.3125,-90.52909531813883
43964.84375,-90.39827628689375
43984.375,-83.89927958504514
44003.90625,-79.22945747515053
44023.4375,-75.44808561721479
44042.96875,-75.42340292512067
44062.5,-76.85777042977757
44082.03125,-78.35290943480294
44101.5625,-76.59533311971252
44121.09375,-74.89404363082996
44140.625,-75.71156255133866
44160.15625,-77.7670390856243
44179.6875,-83.98893287750418
44199.21875,-91.64028100869956
44218.75,-79.68573221182235
44238.28125,-76.09391123792079
44257.8125,-75.22914800762447
44277.34375,-73.76414277642218
44296.875,-72.28783555234109
44316.40625,-69.87528748304355
44335.9375,-68.34919328578741
44355.46875,-67.90842520320287
44375,-68.46510858992497
44394.53125,-69.93455189461363
44414.0625,-72.15317863190465
44433.59375,-72.77793827030357
44453.125,-72.04295789220696
44472.65625,-71.16882913347509
44492.1875,-69.29269656454493
44511.71875,-67.83239960644907
44531.25,-68.22042372189195
44550.78125,-67.27278136674177
44570.3125,-66.39618594112156
44589.84375,-66.20347941146156
44609.375,-66.34231124155458
44628.90625,-68.79214137441274
44648.4375,-72.13583639988359
44667.96875,-75.16749402773804
44687.5,-74.77150920489602
44707.03125,-68.4166790479548
44726.5625,-64.70304550736688
44746.09375,-63.4551462845025
44765.625,-65.17401485088682
44785.15625,-70.72019116366114
44804.6875,-77.50551616625472
44824.21875,-73.05541142948118
44843.75,-71.32054332368475
44863.28125,-72.28806905981376
44882.8125,-74.75593515726486
44902.34375,-71.63560174412126
44921.875,-67.85631953367941
44941.40625,-66.00716432421021
44960.9375,-65.04205167131965
44980.46875,-65.35933219688192
45000,-66.54236434983206
45019.53125,-67.27626587935933
45039.0625,-67.88884336803869
45058.59375,-68.69675961729058
45078.125,-71.04748473978142
45097.65625,-72.10826031040958
45117.1875,-69.33954194702358
45136.71875,-67.40448906377517
45156.25,-65.87343499007528
45175.78125,-64.8927263515841
45195.3125,-66.89850301744994
45214.84375,-72.502579766926
45234.375,-76.55182965842634
45253.90625,-77.82645377091427
45273.4375,-80.59392572364997
45292.96875,-81.70798466603307
45312.5,-91.47901655732277
45332.03125,-76.50117846060301
45351.5625,-70.17273414876018
45371.09375,-68.30210689766118
45390.625,-69.58030445332709
45410.15625,-72.30399581539021
45429.6875,-74.25140279000749
45449.21875,-74.4515281666188
45468.75,-73.15648737137855
45488.28125,-72.09738763511572
45507.8125,-72.14815402222614
45527.34375,-74.82694580590531
45546.875,-83.19097456050244
45566.40625,-82.39451088044909
45585.9375,-72.90321859067647
45605.46875,-70.42534433898749
45625,-71.90031563103366
45644.53125,-78.6917524169053
45664.0625,-75.80840477258987
45683.59375,-70.07664126698815
45703.125,-68.66373169573266
45722.65625,-70.70316469384498
45742.1875,-80.78730488638342
45761.71875,-76.76443483619606
45781.25,-70.06852949978973
45800.78125,-66.61226476582186
45820.3125,-65.97164161913071
45839.84375,-67.6295196092108
45859.375,-70.07334383676213
45878.90625,-73.20112519933831
45898.4375,-77.62922744663298
45917.96875,-83.8023402551655
45937.5,-79.72582062692877
45957.03125,-72.71712018765308
45976.5625,-67.91613652565738
45996.09375,-65.83288935595601
46015.625,-65.17936553406571
46035.15625,-64.83261969814465
46054.6875,-65.85137246234567
46074.21875,-69.42404915034543
46093.75,-75.69733583267562
46113.28125,-86.89621854773711
46132.8125,-78.16528004522644
46152.34375,-72.11845980370788
46171.875,-68.73147851471882
46191.40625,-67.16130574276713
46210.9375,-66.65964712635076
46230.46875,-67.34639715240284
46250,-69.41174520751851
46269.53125,-70.81215798708736
46289.0625,-72.28830265089834
46308.59375,-76.3456573416826
46328.125,-85.7739309138523
46347.65625,-85.49804736089023
46367.1875,-81.34206156105938
46386.71875,-87.6947446141661
46406.25,-75.64286665494157
46425.78125,-65.52338680268333
46445.3125,-60.62267255551599
46464.84375,-59.78923542232604
46484.375,-60.06106153473169
46503.90625,-62.355674452298
46523.4375,-69.72777803870702
46542.96875,-74.30539978648676
46562.5,-74.41316829957556
46582.03125,-75.13839385506955
46601.5625,-73.17971283955545
46621.09375,-74.16090841726673
46640.625,-77.88542633572789
46660.15625,-75.76957213098919
46679.6875,-71.58025792212416
46699.21875,-72.27945773934499
46718.75,-75.10661707758261
46738.28125,-75.3609213026226
46757.8125,-77.55121351820458
46777.34375,-81.49706178094522
46796.875,-76.79813760637886
46816.40625,-70.62010014613145
46835.9375,-68.0102399834759
46855.46875,-68.12037105250054
46875,-72.50799553716293
46894.53125,-83.45646403847795
46914.0625,-72.60388557735509
46933.59375,-69.70067549358158
46953.125,-72.21046137426362
46972.65625,-74.96591684979465
46992.1875,-72.19898088241233
47011.71875,-72.49496438332049
47031.25,-73.2523020169584
47050.78125,-73.195179124493
47070.3125,-72.25861535561502
47089.84375,-70.50267998547324
47109.375,-69.30227390495963
47128.90625,-69.07894422528932
47148.4375,-72.32369947747328
47167.96875,-78.1543800955089
47187.5,-81.65844542329151
47207.03125,-80.95977694362668
47226.5625,-79.32426682433547
47246.09375,-76.95182704060694
47265.625,-75.16949129498556
47285.15625,-77.04182241898249
47304.6875,-92.26247949664271
47324.21875,-80.82448035648093
47343.75,-77.46397311869737
47363.28125,-77.51889759444369
47382.8125,-74.3021777877522
47402.34375,-70.45058946423639
47421.875,-68.96734916548499
47441.40625,-67.78833178149115
47460.9375,-68.93843750785692
47480.46875,-72.92154135030724
47500,-73.25074161970315
47519.53125,-72.91767530576668
47539.0625,-74.12006403644939
47558.59375,-74.39651443853684
47578.125,-77.26438311707351
47597.65625,-80.55930337217339
47617.1875,-85.56541967041343
47636.71875,-104.3215292844889
47656.25,-96.50455881409648
47675.78125,-93.33175904001224
47695.3125,-85.66904576790981
47714.84375,-82.83835711141131
47734.375,-79.28956854997594
47753.90625,-81.46013515009805
47773.4375,-88.20897248971148
47792.96875,-93.40898723857008
47812.5,-85.22073286307554
47832.03125,-78.54639425901662
47851.5625,-72.28306690783525
47871.09375,-69.91540482721818
47890.625,-70.25934864113947
47910.15625,-71.56074321863406
47929.6875,-72.45836879511059
47949.21875,-72.90657395199878
47968.75,-72.74507233005596
47988.28125,-74.63265670080379
48007.8125,-77.23036388923146
48027.34375,-75.88538204826267
48046.875,-73.73267544590047
48066.40625,-72.68492936410641
48085.9375,-73.04574094590633
48105.46875,-77.55559941369513
48125,-83.77605774873868
48144.53125,-73.64207391801442
48164.0625,-71.63596314285344
48183.59375,-70.82349370088573
48203.125,-70.94290495278619
48222.65625,-72.56060394212926
48242.1875,-72.89151807243596
48261.71875,-72.96516356168253
48281.25,-74.50598757245443
48300.78125,-75.16013460557994
48320.3125,-75.59409705315053
48339.84375,-76.66659935935071
48359.375,-77.77788686220839
48378.90625,-73.30078275609156
48398.4375,-69.91348952873658
48417.96875,-67.8582426114296
48437.5,-67.63043093262502
48457.03125,-70.33860298222001
48476.5625,-72.84074814913679
48496.09375,-72.32980039059359
48515.625,-71.59938097364851
48535.15625,-70.57302168437256
48554.6875,-70.02543667199996
48574.21875,-72.48233929071041
48593.75,-77.67325143196628
48613.28125,-80.81757476450088
48632.8125,-78.17159238357048
48652.34375,-73.99451509976092
48671.875,-70.36489186860246
48691.40625,-68.34022655496095
48710.9375,-67.99823572195993
48730.46875,-68.53592915778512
48750,-69.45095112736934
48769.53125,-71.57164753785113
48789.0625,-71.23062869897831
48808.59375,-69.44190596379963
48828.125,-67.80668792175933
48847.65625,-66.16429897564703
48867.1875,-66.05369284741349
48886.71875,-68.58080185244307
48906.25,-74.94325451891089
48925.78125,-81.21803438661404
48945.3125,-75.13319237683965
48964.84375,-73.06154371500344
48984.375,-76.06789637957345
49003.90625,-78.95678220273453
49023.4375,-73.65332487852788
49042.96875,-70.89936833997164
49062.5,-69.06791201542565
49082.03125,-69.02904324486821
49101.5625,-70.9171318563091
49121.09375,-73.63145228113785
49140.625,-75.2040833678865
49160.15625,-75.06506222079052
49179.6875,-74.73896129250703
49199.21875,-78.66735887001835
49218.75,-74.53181547327601
49238.28125,-71.71307897588869
49257.8125,-71.8952437306267
49277.34375,-73.60638424644154
49296.875,-75.36326291236489
49316.40625,-76.29870585606136
49335.9375,-76.81941893942238
49355.46875,-74.29154013788319
49375,-71.498261358123
49394.53125,-70.07181755895837
49414.0625,-69.22644550587134
49433.59375,-69.52202101294007
49453.125,-69.49968930053105
49472.65625,-72.15329251373917
49492.1875,-77.85414606083256
49511.71875,-84.99984033839566
49531.25,-79.06136678719537
49550.78125,-74.51130718134941
49570.3125,-74.01487020227496
49589.84375,-76.83384142640578
49609.375,-80.46232115971632
49628.90625,-79.07669545400788
49648.4375,-81.00804881312831
49667.96875,-81.07281568257687
49687.5,-76.13093133347576
49707.03125,-74.37224962610944
49726.5625,-74.17413493300526
49746.09375,-71.38061229116418
49765.625,-70.19249379776619
49785.15625,-70.68716061168796
49804.6875,-72.10747275750877
49824.21875,-71.93278398601883
49843.75,-70.25168975879771
49863.28125,-68.79517312401873
49882.8125,-68.76398931929091
49902.34375,-71.24052466015441
49921.875,-74.16286985991695
49941.40625,-77.01690795133271
49960.9375,-79.51906784021499
49980.46875,-76.90918695370469
50000,-76.99498099697371
50019.53125,-80.51522485341007
50039.0625,-79.04944649493228
50058.59375,-80.49708464961367
50078.125,-89.06273287027344
50097.65625,-79.76794264688972
50117.1875,-72.75947353197203
50136.71875,-70.1356605868979
50156.25,-70.38772652834842
50175.78125,-69.8788956046985
50195.3125,-69.85170285604474
50214.84375,-71.76392205671621
50234.375,-72.93811782090926
50253.90625,-73.72154054982072
50273.4375,-71.90496626683968
50292.96875,-68.4685311270364
50312.5,-68.12824195852372
50332.03125,-72.47107982765623
50351.5625,-81.38754645765641
50371.09375,-73.57035774336067
50390.625,-74.02239971180204
50410.15625,-77.12513007364267
50429.6875,-77.66024640083619
50449.21875,-78.81313414020906
50468.75,-83.09413911563661
50488.28125,-88.77718256111316
50507.8125,-90.35505475449533
50527.34375,-80.38306728218971
50546.875,-76.90334217908875
50566.40625,-77.99290821173572
50585.9375,-82.10517909407383
50605.46875,-84.90040381904636
50625,-85.06134016728255
50644.53125,-86.73127394392863
50664.0625,-90.76039712843125
50683.59375,-90.24144433109575
50703.125,-89.87860926690382
50722.65625,-81.00189414974906
50742.1875,-74.7068539605785
50761.71875,-71.71266240966639
50781.25,-71.93032348522779
50800.78125,-71.8840264857389
50820.3125,-71.21946788857856
50839.84375,-70.05596465537828
50859.375,-70.26362482449989
50878.90625,-72.41963711793355
50898.4375,-73.06390187277988
50917.96875,-71.95406835457104
50937.5,-70.10954011856919
50957.03125,-68.81734435582965
50976.5625,-70.48284752645475
50996.09375,-75.02412104141202
51015.625,-78.64352588188945
51035.15625,-79.05766175972165
51054.6875,-75.96174685561279
51074.21875,-71.19253498180174
51093.75,-70.07898089400601
51113.28125,-72.61384440313554
51132.8125,-75.67850767523279
51152.34375,-78.20900337808561
51171.875,-75.6476841703861
51191.40625,-75.36935886452537
51210.9375,-75.94224649015241
51230.46875,-78.8204985871855
51250,-88.45873235669362
51269.53125,-87.67399993582504
51289.0625,-77.31749186166294
51308.59375,-73.32943624108991
51328.125,-70.78872631252041
51347.65625,-72.2342705239496
51367.1875,-79.75089552400433
51386.71875,-87.3841001858692
51406.25,-79.46467993056987
51425.78125,-77.07521299634996
51445.3125,-80.85720534786715
51464.84375,-85.62266603888078
51484.375,-86.23084078936897
51503.90625,-78.1464583609049
51523.4375,-74.78338688760456
51542.96875,-73.40737045320671
51562.5,-74.88021350417125
51582.03125,-77.43174035755035
51601.5625,-83.57009047512972
51621.09375,-82.6503575200386
51640.625,-79.58988978236823
51660.15625,-80.07095774511194
51679.6875,-81.48166668678769
51699.21875,-87.8289177377011
51718.75,-82.74545362254361
51738.28125,-82.11063850501438
51757.8125,-79.48848272113827
51777.34375,-77.75974526227799
51796.875,-75.94468982792326
51816.40625,-73.11481374633884
51835.9375,-72.766572127513
51855.46875,-73.13856032161434
51875,-76.67436712769785
51894.53125,-82.40879238423132
51914.0625,-92.0194095346414
51933.59375,-81.85068498512371
51953.125,-77.79675754537702
51972.65625,-80.27569563690437
51992.1875,-91.38885376143007
52011.71875,-78.77065399215743
52031.25,-71.14235924398398
52050.78125,-68.5683858507055
52070.3125,-69.01413720834984
52089.84375,-70.42835749457049
52109.375,-70.05297031856114
52128.90625,-69.90775159030254
52148.4375,-72.31973666776315
52167.96875,-75.47405453202862
52187.5,-79.99994333256862
52207.03125,-83.75400902894572
52226.5625,-86.93502579800034
52246.09375,-80.86818619630012
52265.625,-73.27021715274192
52285.15625,-71.42357868110921
52304.6875,-72.71046171238794
52324.21875,-79.37845246901774
52343.75,-83.30654674974414
52363.28125,-75.83835675472619
52382.8125,-75.8952879641235
52402.34375,-75.59487009585932
52421.875,-72.68395172262656
52441.40625,-71.18671345615979
52460.9375,-71.87658631090639
52480.46875,-76.26357742818675
52500,-75.21753567886746
52519.53125,-77.0542275504978
52539.0625,-86.01375511622173
52558.59375,-75.5122947554993
52578.125,-70.98979973552071
52597.65625,-70.2024123611653
52617.1875,-72.95671570060225
52636.71875,-77.96071255016426
52656.25,-83.62147948762363
52675.78125,-88.2012979286784
52695.3125,-86.18716401372382
52714.84375,-81.53596468228066
52734.375,-80.04354599741077
52753.90625,-79.43666754617061
52773.4375,-77.19421753230156
52792.96875,-73.94266594731518
52812.5,-72.36794535299754
52832.03125,-73.2644122157518
52851.5625,-75.27611213595505
52871.09375,-75.87403188594837
52890.625,-74.3184019656766
52910.15625,-70.89149880952056
52929.6875,-68.26892183463616
52949.21875,-67.3814337734145
52968.75,-67.15254742930316
52988.28125,-68.03432103589374
53007.8125,-70.81681885106782
53027.34375,-74.12104527655305
53046.875,-75.94301154679106
53066.40625,-76.15711518478959
53085.9375,-74.0557818173277
53105.46875,-74.34258958467157
53125,-74.95464771727282
53144.53125,-76.34556102863837
53164.0625,-80.34567143918702
53183.59375,-74.66279788431382
53203.125,-71.20222997326917
53222.65625,-69.21257476079893
53242.1875,-69.78519259082495
53261.71875,-72.36924537456646
53281.25,-76.12679305963054
53300.78125,-79.55387323974431
53320.3125,-74.46292947265981
53339.84375,-73.47599159806413
53359.375,-72.96569156847933
53378.90625,-71.02051089845854
53398.4375,-69.84858958222465
53417.96875,-68.95449461182957
53437.5,-70.20830392834985
53457.03125,-77.48446273326698
53476.5625,-80.8372126782748
53496.09375,-76.07927779771332
53515.625,-74.20530259458987
53535.15625,-77.19210848705799
53554.6875,-78.12747841854407
53574.21875,-74.117101390439
53593.75,-73.33135914731389
53613.28125,-73.63521141164641
53632.8125,-74.37051355749396
53652.34375,-76.63897768801894
53671.875,-80.81945357909119
53691.40625,-90.75519210477697
53710.9375,-83.40021944549876
53730.46875,-75.85693750138316
53750,-72.37228832181673
53769.53125,-70.83291833466431
53789.0625,-71.01610604518459
53808.59375,-72.76190459418484
53828.125,-76.54461248675231
53847.65625,-83.04111974045748
53867.1875,-81.4962741454673
53886.71875,-77.69924841257699
53906.25,-75.21523743643921
53925.78125,-71.6384637538866
53945.3125,-69.34450096585239
53964.84375,-68.53065336073996
53984.375,-69.85351765733297
54003.90625,-74.38847308856239
54023.4375,-77.81791256170978
54042.96875,-75.28198434987006
54062.5,-71.53583587140355
54082.03125,-70.34313456296556
54101.5625,-70.89503591615713
54121.09375,-72.67611847893934
54140.625,-74.58754229709344
54160.15625,-74.89973896872452
54179.6875,-75.74947386732899
54199.21875,-73.20501992209935
54218.75,-71.43666841438832
54238.28125,-70.71509378780542
54257.8125,-70.09749570404746
54277.34375,-72.91947911788711
54296.875,-82.23501641047727
54316.40625,-79.50485082968109
54335.9375,-72.86616697737077
54355.46875,-70.91287771055457
54375,-71.35089565333604
54394.53125,-73.30792191402709
54414.0625,-79.3096048023971
54433.59375,-83.09147082354403
54453.125,-80.09807739874506
54472.65625,-80.90940139769523
54492.1875,-79.05237274203122
54511.71875,-74.73502222984129
54531.25,-72.76667511163551
54550.78125,-72.62690806170515
54570.3125,-72.84936015234972
54589.84375,-76.78624220549686
54609.375,-83.15639095373454
54628.90625,-75.91414124454974
54648.4375,-73.25171815384705
54667.96875,-74.83879573476062
54687.5,-82.6351330929205
54707.03125,-78.55075096996032
54726.5625,-73.7106574786844
54746.09375,-72.76321476682173
54765.625,-71.64511939638109
54785.15625,-70.31092249488194
54804.6875,-70.25386889488237
54824.21875,-69.89805823184216
54843.75,-69.41436705820136
54863.28125,-71.1874580424371
54882.8125,-75.10996988538606
54902.34375,-76.34553071383445
54921.875,-72.28734622511048
54941.40625,-69.50395508769097
54960.9375,-67.57460469775474
54980.46875,-66.0440098432062
55000,-66.07106292390021
55019.53125,-67.23168231029445
55039.0625,-69.50905793967989
55058.59375,-74.01637065991773
55078.125,-80.5543822676689
55097.65625,-86.76883160687667
55117.1875,-83.01211756941268
55136.71875,-76.7333555128582
55156.25,-74.69687384851166
55175.78125,-73.58184096215527
55195.3125,-71.66226149746801
55214.84375,-72.63813823780842
55234.375,-75.42652009289836
55253.90625,-75.66223888122435
55273.4375,-76.90745371422588
55292.96875,-81.0046289512558
55312.5,-80.66900817324465
55332.03125,-81.00131438750525
55351.5625,-76.7476496788745
55371.09375,-75.84831601584317
55390.625,-79.15923038065343
55410.15625,-87.3891277976829
55429.6875,-81.67742457590052
55449.21875,-81.81363127941459
55468.75,-85.392265947167
55488.28125,-84.80300070203016
55507.8125,-82.50142023528264
55527.34375,-75.86863116240249
55546.875,-71.72732467387512
55566.40625,-71.74660164452074
55585.9375,-75.33731479749598
55605.46875,-78.36456529956608
55625,-78.17694772864991
55644.53125,-78.0338707803451
55664.0625,-82.52796872229845
55683.59375,-82.06382418896641
55703.125,-77.47920081861264
55722.65625,-75.26170524659398
55742.1875,-73.39662511603244
55761.71875,-69.77506504838327
55781.25,-67.82992373821256
55800.78125,-67.74721193440637
55820.3125,-68.18259633874834
55839.84375,-69.0812844557492
55859.375,-71.20712511837931
55878.90625,-74.67312078662376
55898.4375,-80.37850462598607
55917.96875,-81.74190849760079
55937.5,-74.80717061064904
55957.03125,-71.1967891564165
55976.5625,-69.90928783839999
55996.09375,-69.22983905477173
56015.625,-69.1375245238242
56035.15625,-70.76134185707974
56054.6875,-73.57469666423557
56074.21875,-72.5872617126868
56093.75,-71.15163789842248
56113.28125,-73.12318852552046
56132.8125,-79.0402946221835
56152.34375,-91.08682252241339
56171.875,-83.60734555065466
56191.40625,-86.74051895262164
56210.9375,-79.50844417606612
56230.46875,-74.79842312297396
56250,-71.50734578861875
56269.53125,-71.79228806994146
56289.0625,-73.93232723073226
56308.59375,-74.677343418322
56328.125,-73.58454436983205
56347.65625,-73.74585529509827
56367.1875,-77.71961437396391
56386.71875,-75.53788380148981
56406.25,-74.2648242995715
56425.78125,-73.78296146566936
56445.3125,-74.1286026184016
56464.84375,-75.08225474688489
56484.375,-77.67059693795591
56503.90625,-82.04091562957299
56523.4375,-78.25282854154949
56542.96875,-73.62019067807795
56562.5,-72.63148831494226
56582.03125,-71.63000883829451
56601.5625,-71.39279048988577
56621.09375,-71.15951676208712
56640.625,-72.06483699427565
56660.15625,-77.54355083198189
56679.6875,-78.49488343178763
56699.21875,-74.1253085791281
56718.75,-73.50541706867875
56738.28125,-76.46556723594247
56757.8125,-86.71621958485859
56777.34375,-82.206708107583
56796.875,-76.6823977517835
56816.40625,-76.64490238132512
56835.9375,-78.56344421953801
56855.46875,-76.7352227436061
56875,-75.21536028713768
56894.53125,-74.09146793146724
56914.0625,-74.92922458729632
56933.59375,-77.63551443187639
56953.125,-84.33708728091425
56972.65625,-102.1840003582626
56992.1875,-91.13316673622069
57011.71875,-84.42995541744571
57031.25,-84.83647846114386
57050.78125,-95.21947610834073
57070.3125,-79.01907906976659
57089.84375,-75.1040549656427
57109.375,-73.21093850140878
57128.90625,-71.59232234847903
57148.4375,-72.56416994832792
57167.96875,-74.16284329223257
57187.5,-77.16865976559409
57207.03125,-81.25484546632138
57226.5625,-77.96231358841862
57246.09375,-74.16005187476638
57265.625,-73.47090497920162
57285.15625,-74.32338529336602
57304.6875,-77.7804863576231
57324.21875,-86.25493816764418
57343.75,-79.718584541279
57363.28125,-76.05950423884511
57382.8125,-75.59059367322865
57402.34375,-75.1256102740181
57421.875,-76.69434011386572
57441.40625,-72.88777671542236
57460.9375,-69.32949777655698
57480.46875,-68.3932886035924
57500,-68.93695693096446
57519.53125,-70.58478885556735
57539.0625,-73.52880217039498
57558.59375,-75.80324076204944
57578.125,-78.20173410689789
57597.65625,-80.16838325631674
57617.1875,-80.40927671965039
57636.71875,-79.21202526809451
57656.25,-79.47093643433105
57675.78125,-78.42546683769383
57695.3125,-76.8983638282569
57714.84375,-85.16559739375298
57734.375,-79.12127310791125
57753.90625,-71.81983001312199
57773.4375,-70.17325731310616
57792.96875,-73.18642592465751
57812.5,-77.95928052334538
57832.03125,-90.35193163728989
57851.5625,-74.52513240525086
57871.09375,-72.98357512536025
57890.625,-72.89703270144118
57910.15625,-73.74270860794657
57929.6875,-74.48262316485645
57949.21875,-72.91261874893105
57968.75,-75.07579124586748
57988.28125,-80.36631187413619
58007.8125,-78.39492402159985
58027.34375,-76.15601951680424
58046.875,-73.79825575493444
58066.40625,-73.02290078853571
58085.9375,-72.75727759706174
58105.46875,-74.29191004045991
58125,-75.4049185435539
58144.53125,-74.35029739056286
58164.0625,-75.80707014675576
58183.59375,-76.20643976049847
58203.125,-80.03762341153296
58222.65625,-80.43719310454341
58242.1875,-74.2415882566837
58261.71875,-72.95789399474249
58281.25,-72.02496998071736
58300.78125,-73.8243501137286
58320.3125,-83.18146855638872
58339.84375,-89.66288131011939
58359.375,-89.83247100448503
58378.90625,-83.67244752017463
58398.4375,-75.3390541240516
58417.96875,-69.82303474253877
58437.5,-68.95125908545907
58457.03125,-71.90975401166283
58476.5625,-76.2857444470191
58496.09375,-80.04445157292528
58515.625,-75.72641600513171
58535.15625,-75.13923255218972
58554.6875,-77.71457135212935
58574.21875,-82.59156375665619
58593.75,-84.25469122782884
58613.28125,-76.52048348050283
58632.8125,-71.5293327440378
58652.34375,-69.99863103901066
58671.875,-68.72472505558919
58691.40625,-68.97380301971134
58710.9375,-73.46595557740795
58730.46875,-85.47145179249013
58750,-76.40339423661129
58769.53125,-72.82515254205214
58789.0625,-75.31826032809059
58808.59375,-86.01852005594223
58828.125,-83.98563344252904
58847.65625,-78.30151146615736
58867.1875,-75.48687034001381
58886.71875,-74.44915101783164
58906.25,-72.13594315272579
58925.78125,-69.24715046036522
58945.3125,-69.2838650387081
58964.84375,-71.03652558017158
58984.375,-71.58867161552855
59003.90625,-71.49537841136483
59023.4375,-72.05680189741359
59042.96875,-73.95346999322791
59062.5,-75.93279755265736
59082.03125,-73.96862721200505
59101.5625,-71.39584447986859
59121.09375,-70.64700302033934
59140.625,-71.51619594141766
59160.15625,-75.11008752759284
59179.6875,-78.27351808574167
59199.21875,-76.59239811623739
59218.75,-75.25713559344784
59238.28125,-72.53728389389158
59257.8125,-72.01978833290723
59277.34375,-72.59280306299192
59296.875,-72.3690631906844
59316.40625,-76.4582334779606
59335.9375,-82.51122322357458
59355.46875,-75.32789107210722
59375,-72.14332799276222
59394.53125,-72.25220966327764
59414.0625,-75.57020148154697
59433.59375,-77.81788408004775
59453.125,-76.90599649084487
59472.65625,-81.52253398592734
59492.1875,-87.93690881751465
59511.71875,-81.23039705305209
59531.25,-76.22783622796716
59550.78125,-76.27255953659768
59570.3125,-80.72887120595485
59589.84375,-86.86173643397137
59609.375,-76.69525274960242
59628.90625,-70.96779175681549
59648.4375,-69.48199285025393
59667.96875,-70.62295835994942
59687.5,-73.08549930241026
59707.03125,-75.79761649929628
59726.5625,-78.86271124270205
59746.09375,-80.85722273414152
59765.625,-79.8001872489881
59785.15625,-77.75946073997923
59804.6875,-74.9762024122865
59824.21875,-73.44166065769629
59843.75,-72.79997659006396
59863.28125,-70.0016555735653
59882.8125,-68.14619422770086
59902.34375,-68.20315079140181
59921.875,-69.64428670274971
59941.40625,-73.98680157005261
59960.9375,-77.71583510799491
59980.46875,-75.05249984556598
60000,-73.58081704364795
60019.53125,-74.82752426035042
60039.0625,-75.31746339187403
60058.59375,-74.17719692915901
60078.125,-73.97683706625224
60097.65625,-74.4391352065946
60117.1875,-77.14580718421387
60136.71875,-80.86731102081802
60156.25,-81.6576651067198
60175.78125,-78.2467040114567
60195.3125,-76.81122707332307
60214.84375,-77.74928082963378
60234.375,-76.73395575798585
60253.90625,-75.63632191229131
60273.4375,-76.62788292323633
60292.96875,-74.89856015508273
60312.5,-72.36326994150473
60332.03125,-73.09554608074251
60351.5625,-73.66357454335802
60371.09375,-72.75297047449871
60390.625,-73.31995251832642
60410.15625,-73.7508685541104
60429.6875,-73.32394299593369
60449.21875,-73.75090164347905
60468.75,-75.01992052110862
60488.28125,-75.53157872591549
60507.8125,-74.63583857324099
60527.34375,-73.28560994352782
60546.875,-73.74714473708198
60566.40625,-77.8528469871959
60585.9375,-85.75115118994987
60605.46875,-78.01830142256117
60625,-75.93734367452491
60644.53125,-75.83355811659692
60664.0625,-77.35386749965332
60683.59375,-82.95126477339268
60703.125,-79.32808522710008
60722.65625,-74.10035133413842
60742.1875,-71.69561032052195
60761.71875,-69.72537699459798
60781.25,-68.83290150210171
60800.78125,-69.66541091832194
60820.3125,-71.90727741749767
60839.84375,-75.92800659863022
60859.375,-80.61953333658002
60878.90625,-84.02626247768744
60898.4375,-88.877513364384
60917.96875,-86.74760007125658
60937.5,-79.49763923005106
60957.03125,-77.27042062669148
60976.5625,-78.73242759622224
60996.09375,-83.04048851691883
61015.625,-81.25139033665711
61035.15625,-77.05622327675468
61054.6875,-76.55776754791337
61074.21875,-78.11459906917521
61093.75,-79.45358606713856
61113.28125,-76.47120330520406
61132.8125,-73.39671225357753
61152.34375,-72.12112529989324
61171.875,-72.05329308098446
61191.40625,-73.40115232547871
61210.9375,-77.39477564157168
61230.46875,-81.83585024263563
61250,-82.97646485227246
61269.53125,-75.63897496072899
61289.0625,-73.49028599538622
61308.59375,-72.42356592869088
61328.125,-73.12233113527287
61347.65625,-75.11569477375943
61367.1875,-73.29164574678123
61386.71875,-71.60706226926212
61406.25,-71.50410112126596
61425.78125,-72.22995485393264
61445.3125,-72.4652425788144
61464.84375,-69.2454903781132
61484.375,-67.10321475294003
61503.90625,-68.90656260442097
61523.4375,-74.92933538535502
61542.96875,-91.98281617601337
61562.5,-80.43592408042849
61582.03125,-80.43215101647996
61601.5625,-84.21382112093175
61621.09375,-78.49009959671055
61640.625,-78.65975008696668
61660.15625,-77.45069877784518
61679.6875,-75.60422706910346
61699.21875,-72.18299701946448
61718.75,-71.96701932698549
61738.28125,-75.74234677343699
61757.8125,-82.94667100543691
61777.34375,-85.3512979973376
61796.875,-84.13099627652349
61816.40625,-82.9829780937666
61835.9375,-78.69028262533109
61855.46875,-75.4065804460086
61875,-74.16505741935755
61894.53125,-73.19153079021496
61914.0625,-72.34103820988464
61933.59375,-74.19028272116711
61953.125,-74.1611638622371
61972.65625,-73.63276531651587
61992.1875,-72.73733320580236
62011.71875,-70.07301246321882
62031.25,-70.08065203056086
62050.78125,-70.5226669075475
62070.3125,-69.64840201828503
62089.84375,-70.41367760709151
62109.375,-72.69135122427106
62128.90625,-75.57508616033249
62148.4375,-80.87059296125696
62167.96875,-79.51084490388298
62187.5,-81.86744173406731
62207.03125,-90.10050362359927
62226.5625,-80.50528393254886
62246.09375,-76.10543059439665
62265.625,-76.83889429146794
62285.15625,-78.7218702085656
62304.6875,-76.33594985243057
62324.21875,-74.16800322419479
62343.75,-74.04900972192567
62363.28125,-74.87577051307456
62382.8125,-73.2451600481406
62402.34375,-73.65759783200103
62421.875,-76.21205001299872
62441.40625,-75.91348292550087
62460.9375,-77.58388077270004
62480.46875,-85.80370166664153
62500,-84.02794064472394
62519.53125,-75.55589316323119
62539.0625,-71.65676316329267
62558.59375,-72.1369982132781
62578.125,-72.80148353815915
62597.65625,-72.75909026626029
62617.1875,-74.28386345898268
62636.71875,-79.20925407655517
62656.25,-105.4382118472324
62675.78125,-81.62822726248051
62695.3125,-80.17685898221579
62714.84375,-84.89102990042511
62734.375,-81.97645505610672
62753.90625,-77.21297940658577
62773.4375,-77.00404838377874
62792.96875,-76.43621000472049
62812.5,-77.21134257325213
62832.03125,-82.65772898947161
62851.5625,-86.47449295269985
62871.09375,-85.63620332447809
62890.625,-84.38614384678749
62910.15625,-83.00151510321393
62929.6875,-90.91140431490047
62949.21875,-85.38286932482636
62968.75,-78.47401664701623
62988.28125,-76.30476972569609
63007.8125,-78.88355441523831
63027.34375,-82.82524805590802
63046.875,-82.11565917836936
63066.40625,-84.1645658059837
63085.9375,-89.64151286533931
63105.46875,-86.11057935296995
63125,-78.29994881929349
63144.53125,-76.46733545023629
63164.0625,-80.14216983061944
63183.59375,-80.57638077264143
63203.125,-82.15705145105659
63222.65625,-85.36481940914838
63242.1875,-87.78968557498878
63261.71875,-84.17187756134894
63281.25,-79.50633995884202
63300.78125,-81.82924786028197
63320.3125,-91.38773167196398
63339.84375,-88.59058037020419
63359.375,-81.57045448974038
63378.90625,-77.3924997068187
63398.4375,-74.68723238732088
63417.96875,-74.02349317048359
63437.5,-75.17550296501754
63457.03125,-76.2523603755489
63476.5625,-74.61064804493387
63496.09375,-73.52761061589372
63515.625,-71.84097071480225
63535.15625,-71.07351955361813
63554.6875,-72.55694263863904
63574.21875,-73.08595826972643
63593.75,-73.59103301228319
63613.28125,-74.22011587884835
63632.8125,-74.12923064387223
63652.34375,-74.09088097807835
63671.875,-75.89918688107264
63691.40625,-80.30482799147357
63710.9375,-81.96223591753281
63730.46875,-79.74313403370613
63750,-75.61848682337911
63769.53125,-73.23578507502
63789.0625,-75.70771272878805
63808.59375,-80.16576917975085
63828.125,-75.65415132464128
63847.65625,-71.92178983601428
63867.1875,-71.48524934258597
63886.71875,-75.62965457085186
63906.25,-79.12986240467525
63925.78125,-76.41849302089915
63945.3125,-74.26540103814938
63964.84375,-74.68824888711499
63984.375,-74.93533984820752
64003.90625,-72.05772802203121
64023.4375,-70.99501381350363
64042.96875,-73.03592243229021
64062.5,-75.42812212925816
64082.03125,-74.75594978458328
64101.5625,-73.80598613256166
64121.09375,-73.63062790812832
64140.625,-72.82363021928072
64160.15625,-74.01173078905609
64179.6875,-80.30039230525256
64199.21875,-109.9954841224689
64218.75,-80.0615908792353
64238.28125,-76.8509521871997
64257.8125,-76.16331339131877
64277.34375,-76.03952138085685
64296.875,-80.35327856856108
64316.40625,-82.67102022150422
64335.9375,-80.09524719059402
64355.46875,-77.46146536262926
64375,-75.09995344672075
64394.53125,-73.53602434157592
64414.0625,-69.69956049550265
64433.59375,-67.11414362600866
64453.125,-66.6601293078615
64472.65625,-68.4332437780762
64492.1875,-72.24395695002632
64511.71875,-77.16479043499015
64531.25,-80.86769188549609
64550.78125,-79.97168669747512
64570.3125,-77.5138878610294
64589.84375,-79.51984972060839
64609.375,-78.82811876455972
64628.90625,-80.56075928527088
64648.4375,-92.75555656471468
64667.96875,-78.54972089260458
64687.5,-73.71856629238654
64707.03125,-72.08573708443555
64726.5625,-72.55874215061064
64746.09375,-75.36938083948785
64765.625,-81.35957607153895
64785.15625,-85.02467028147392
64804.6875,-85.65941305611005
64824.21875,-81.87398874435834
64843.75,-75.50342663277996
64863.28125,-71.94556977204819
64882.8125,-71.28055378981443
64902.34375,-70.91906156804197
64921.875,-71.25762586296921
64941.40625,-76.10958831224123
64960.9375,-80.00626932309827
64980.46875,-76.1452230048218
65000,-76.46543076307242
65019.53125,-77.40590323848275
65039.0625,-79.00503232276306
65058.59375,-79.6751577945561
65078.125,-76.56899569446422
65097.65625,-74.47036537971799
65117.1875,-74.02861521889299
65136.71875,-74.44762997479765
65156.25,-82.49954020914508
65175.78125,-80.2699546125509
65195.3125,-73.36319663533456
65214.84375,-71.47419431905638
65234.375,-73.49652922451205
65253.90625,-75.51653027880602
65273.4375,-76.11437802204709
65292.96875,-79.84297017844008
65312.5,-76.86073633259353
65332.03125,-74.79671390741001
65351.5625,-77.59369605493993
65371.09375,-83.6217123213308
65390.625,-83.16444463137509
65410.15625,-77.09940133472527
65429.6875,-76.20870899536028
65449.21875,-78.13760561634601
65468.75,-83.10245935530504
65488.28125,-95.45001633858276
65507.8125,-80.02546458741242
65527.34375,-77.42439198856906
65546.875,-77.48434935088214
65566.40625,-80.60839851027976
65585.9375,-88.15237384850228
65605.46875,-90.70705264706733
65625,-84.49908427304433
65644.53125,-83.29566406933887
65664.0625,-84.87600812624622
65683.59375,-78.82984168965275
65703.125,-75.21411713098726
65722.65625,-74.12471176713316
65742.1875,-71.91430489961996
65761.71875,-71.13377702226457
65781.25,-72.86569793745352
65800.78125,-73.77659807112272
65820.3125,-73.06459255351116
65839.84375,-70.37846676140407
65859.375,-68.25954578356084
65878.90625,-68.07795629480042
65898.4375,-70.93914464151361
65917.96875,-74.3139822284278
65937.5,-73.47095230438966
65957.03125,-73.73675631654842
65976.5625,-76.57399295495497
65996.09375,-79.77641798886982
66015.625,-80.64182047030899
66035.15625,-86.28079369487394
66054.6875,-79.89163777229963
66074.21875,-74.14357990366265
66093.75,-71.36252568283109
66113.28125,-70.91481148685655
66132.8125,-73.8829357326223
66152.34375,-77.02292454766585
66171.875,-75.70704521296177
66191.40625,-75.87880413902523
66210.9375,-86.23064860101948
66230.46875,-80.06705603315604
66250,-72.82778075527924
66269.53125,-70.49143822378153
66289.0625,-70.54839404740549
66308.59375,-70.44847220789566
66328.125,-71.87301676598247
66347.65625,-72.64345648227582
66367.1875,-70.75876069994874
66386.71875,-70.41536836247765
66406.25,-70.81385201838913
66425.78125,-71.17774136534388
66445.3125,-72.37893924191366
66464.84375,-74.78131046305477
66484.375,-77.12719012059446
66503.90625,-82.88130504452059
66523.4375,-84.27696578934429
66542.96875,-86.36673056895845
66562.5,-92.05782769915139
66582.03125,-84.09134361159556
66601.5625,-76.77231708553316
66621.09375,-73.73457460068012
66640.625,-72.77094193728479
66660.15625,-71.21828310271297
66679.6875,-71.57510028229237
66699.21875,-75.53532375075427
66718.75,-80.93810341802222
66738.28125,-86.48169180270843
66757.8125,-92.1482474546618
66777.34375,-89.92308147924903
66796.875,-90.94889179610989
66816.40625,-86.91805094134786
66835.9375,-88.330045828756
66855.46875,-81.22298504978447
66875,-76.23881014119465
66894.53125,-74.54410678954758
66914.0625,-75.34110322104172
66933.59375,-76.87918787365949
66953.125,-75.67639368578847
66972.65625,-73.63730617660748
66992.1875,-73.3201836786356
67011.71875,-77.18145299801975
67031.25,-84.77392427068834
67050.78125,-77.25558879320366
67070.3125,-73.39790534218926
67089.84375,-74.14423203529722
67109.375,-76.45711547964508
67128.90625,-74.12922419194614
67148.4375,-73.88460273255212
67167.96875,-76.72807372486301
67187.5,-74.25420686505554
67207.03125,-71.50402405129367
67226.5625,-71.60838106951647
67246.09375,-74.32205379205683
67265.625,-83.29016867001468
67285.15625,-80.05515771135842
67304.6875,-74.47190667668679
67324.21875,-73.89221421490436
67343.75,-72.4241607899647
67363.28125,-70.9816801790919
67382.8125,-71.1182186963581
67402.34375,-72.09459681573948
67421.875,-73.51851968273462
67441.40625,-76.24452886454526
67460.9375,-81.68083541197282
67480.46875,-79.49371184698587
67500,-77.82966953395591
67519.53125,-78.82469327570071
67539.0625,-77.97227592161302
67558.59375,-79.97899367779409
67578.125,-87.47793353658045
67597.65625,-99.67209409631818
67617.1875,-83.68143012847726
67636.71875,-79.58397912432487
67656.25,-76.54030363279006
67675.78125,-74.81802913582307
67695.3125,-75.02875623654482
67714.84375,-74.53981273928575
67734.375,-74.72131464252956
67753.90625,-73.99628504558702
67773.4375,-73.04926317995518
67792.96875,-72.09473738496425
67812.5,-71.85699360882451
67832.03125,-72.47306881972017
67851.5625,-73.77474528493852
67871.09375,-78.58210896672264
67890.625,-81.37994325050062
67910.15625,-81.44581554248424
67929.6875,-75.39066188199416
67949.21875,-73.86910124181642
67968.75,-72.97387399932099
67988.28125,-71.23847938738125
68007.8125,-72.26002959611357
68027.34375,-73.9310066374634
68046.875,-76.65541369902924
68066.40625,-94.30306408742939
68085.9375,-79.20517518492903
68105.46875,-75.58243775394801
68125,-74.87335812218589
68144.53125,-78.19372477531708
68164.0625,-90.65746393393769
68183.59375,-85.97807762240821
68203.125,-88.3424619199905
68222.65625,-80.77940909952821
68242.1875,-73.54582742384395
68261.71875,-70.32397922711071
68281.25,-70.48577061521915
68300.78125,-72.22753462550091
68320.3125,-75.59526439810467
68339.84375,-80.92595262301487
68359.375,-78.16327941370238
68378.90625,-72.89437883864791
68398.4375,-71.80156596253363
68417.96875,-74.53792675457788
68437.5,-81.55895494626313
68457.03125,-87.82089502553495
68476.5625,-78.4420429023891
68496.09375,-78.54752976054934
68515.625,-81.04696398078573
68535.15625,-79.45286671960049
68554.6875,-79.00212988796567
68574.21875,-79.07851157431116
68593.75,-79.26894680023454
68613.28125,-77.60401587280255
68632.8125,-76.57693847668173
68652.34375,-76.93147960059287
68671.875,-78.40564192025442
68691.40625,-80.85015068970461
68710.9375,-77.17982051818271
68730.46875,-75.47078960602329
68750,-74.24292101448432
68769.53125,-73.11638862341256
68789.0625,-75.1739040806942
68808.59375,-78.11041092621647
68828.125,-76.94735368509591
68847.65625,-75.78063601222524
68867.1875,-76.05276585590693
68886.71875,-77.33852967814917
68906.25,-81.70154723736925
68925.78125,-90.16727636850698
68945.3125,-85.33236149787568
68964.84375,-77.89259999901167
68984.375,-73.53694745398043
69003.90625,-72.62033093226739
69023.4375,-73.27095322146957
69042.96875,-72.55966422725584
69062.5,-71.02881608563072
69082.03125,-72.88413249183419
69101.5625,-78.45715664386452
69121.09375,-85.73548611742359
69140.625,-76.05751067681116
69160.15625,-72.82754775445149
69179.6875,-72.92792207315674
69199.21875,-75.06423298792826
69218.75,-75.40718422190443
69238.28125,-75.22461997532392
69257.8125,-77.84139236155853
69277.34375,-80.03003641237021
69296.875,-84.07813728812928
69316.40625,-87.12220179572215
69335.9375,-78.88448435939506
69355.46875,-73.90536829686238
69375,-72.34384736341622
69394.53125,-73.15788757170961
69414.0625,-74.56532087225129
69433.59375,-77.09255909290765
69453.125,-79.96094590618411
69472.65625,-77.38225992291237
69492.1875,-76.98968418702957
69511.71875,-74.3349807914104
69531.25,-70.66192926701392
69550.78125,-70.23310112292465
69570.3125,-71.38434313245901
69589.84375,-74.47898469115735
69609.375,-80.58705914173436
69628.90625,-77.07897083466298
69648.4375,-75.36449134204824
69667.96875,-72.00475988807484
69687.5,-69.76571740346577
69707.03125,-70.38739863297425
69726.5625,-71.50917783741987
69746.09375,-72.93731489234479
69765.625,-75.86248227381616
69785.15625,-79.37015001842983
69804.6875,-86.08536371056417
69824.21875,-93.51282077689389
69843.75,-79.14287809572988
69863.28125,-76.63118618514991
69882.8125,-80.9623620694168
69902.34375,-92.26593701069245
69921.875,-86.37236026554633
69941.40625,-97.77334882023982
69960.9375,-83.8769149572969
69980.46875,-76.90331962593845
70000,-74.72557922456306
70019.53125,-76.70066546578846
70039.0625,-85.52844856313374
70058.59375,-77.86902012977285
70078.125,-78.33758488347867
70097.65625,-91.9173384893228
70117.1875,-77.14075131678706
70136.71875,-71.03068843645966
70156.25,-69.54865871649173
70175.78125,-70.57563573215026
70195.3125,-73.67031528072633
70214.84375,-75.03560118334241
70234.375,-73.2712167310579
70253.90625,-72.27182322749461
70273.4375,-70.57338374218742
70292.96875,-69.74166124358322
70312.5,-72.57413354755711
70332.03125,-81.57690114268149
70351.5625,-90.03594029468331
70371.09375,-78.11190645532706
70390.625,-73.39639601334569
70410.15625,-72.37429125386255
70429.6875,-71.83020401595194
70449.21875,-71.58141544142336
70468.75,-73.50687544115942
70488.28125,-77.24908483841537
70507.8125,-84.41004507112959
70527.34375,-83.57636689011285
70546.875,-77.65632547276725
70566.40625,-78.37830739337733
70585.9375,-75.993822468643
70605.46875,-70.36065128666235
70625,-68.49096075980812
70644.53125,-68.06561895191415
70664.0625,-69.18897249186026
70683.59375,-74.17063973859095
70703.125,-86.02950758182901
70722.65625,-78.22595391841899
70742.1875,-74.03658036394316
70761.71875,-73.75537999961988
70781.25,-72.95951612679548
70800.78125,-71.51454595958485
70820.3125,-72.10607434884678
70839.84375,-74.06271730442202
70859.375,-74.07571242763657
70878.90625,-69.94427963820436
70898.4375,-67.17963834742378
70917.96875,-66.77261459717425
70937.5,-68.18160680930308
70957.03125,-71.48666581540009
70976.5625,-76.09682025117544
70996.09375,-81.93102339403717
71015.625,-80.90771470420094
71035.15625,-76.17265345883544
71054.6875,-73.99311182735626
71074.21875,-72.09766302125712
71093.75,-70.97176104284767
71113.28125,-72.49738635688998
71132.8125,-74.3953378454311
71152.34375,-71.36302554718148
71171.875,-68.74454396186441
71191.40625,-68.80209505223674
71210.9375,-71.7450963059236
71230.46875,-76.42776061150356
71250,-79.43449009647938
71269.53125,-76.84404308562411
71289.0625,-73.56903057295168
71308.59375,-72.5151496080346
71328.125,-72.47478871977418
71347.65625,-74.19532108000207
71367.1875,-76.2476763553438
71386.71875,-78.01308793615492
71406.25,-81.82849634286144
71425.78125,-77.43129345989247
71445.3125,-74.71309729134241
71464.84375,-73.66117278753754
71484.375,-73.56035353842542
71503.90625,-79.86338227530362
71523.4375,-82.43876534042082
71542.96875,-84.16102171408627
71562.5,-92.20490082152052
71582.03125,-81.82719955014386
71601.5625,-74.83286147166021
71621.09375,-72.34218040104727
71640.625,-72.49820968363046
71660.15625,-71.95203333777047
71679.6875,-71.73601980733515
71699.21875,-74.06106337806027
71718.75,-78.4047866326639
71738.28125,-75.01241965635997
71757.8125,-71.54968462422967
71777.34375,-69.02200885283979
71796.875,-69.19921674127809
71816.40625,-72.95804915454457
71835.9375,-82.46697060493629
71855.46875,-78.99472838256347
71875,-72.69130669440382
71894.53125,-73.15076131490331
71914.0625,-75.5365600675394
71933.59375,-76.63419668318312
71953.125,-78.6703118170544
71972.65625,-79.50087143617809
71992.1875,-81.29515451952821
72011.71875,-90.65940897370376
72031.25,-86.93292741282775
72050.78125,-81.4721581022561
72070.3125,-80.74047548239929
72089.84375,-94.41517310540489
72109.375,-92.85101159245713
72128.90625,-92.8548027514215
72148.4375,-90.10712973896602
72167.96875,-88.70455191669519
72187.5,-80.918624931857
72207.03125,-76.75943436154333
72226.5625,-75.83078791622155
72246.09375,-78.88080241483956
72265.625,-84.33212646249089
72285.15625,-79.21420884957071
72304.6875,-76.54433770608223
72324.21875,-74.61212223345308
72343.75,-73.46694896713271
72363.28125,-74.66442809483767
72382.8125,-73.67154553566064
72402.34375,-71.19854744673822
72421.875,-69.79527504867632
72441.40625,-69.46983179306352
72460.9375,-69.92466421737396
72480.46875,-70.10549098981701
72500,-69.76472000145003
72519.53125,-69.41567480970382
72539.0625,-68.93350366976588
72558.59375,-69.63205827642442
72578.125,-72.25800372314345
72597.65625,-77.04925410490466
72617.1875,-81.95407873897395
72636.71875,-75.3050416662052
72656.25,-72.22008722627044
72675.78125,-70.9262958405931
72695.3125,-70.04187962499745
72714.84375,-69.47257199553371
72734.375,-68.75836974291519
72753.90625,-68.84677293985727
72773.4375,-70.33417058465106
72792.96875,-74.15652097845012
72812.5,-75.81019544198661
72832.03125,-73.0291039936657
72851.5625,-71.96721886260634
72871.09375,-71.7422599677538
72890.625,-71.95440974487815
72910.15625,-71.90637602688406
72929.6875,-70.98353206443187
72949.21875,-69.46396795721378
72968.75,-69.34129469011134
72988.28125,-71.75719770138394
73007.8125,-75.70345152903374
73027.34375,-81.78767560296158
73046.875,-85.30250325106863
73066.40625,-80.46270583545044
73085.9375,-79.43339584852312
73105.46875,-78.1397662567761
73125,-75.20773775188262
73144.53125,-72.2877249499715
73164.0625,-71.98394987939598
73183.59375,-74.1981176501328
73203.125,-76.98483891341075
73222.65625,-80.15775433979086
73242.1875,-76.9471471376408
73261.71875,-72.53239173803321
73281.25,-71.57779776122305
73300.78125,-73.53343621721129
73320.3125,-77.97293564062707
73339.84375,-83.69957967146334
73359.375,-76.58905352436977
73378.90625,-75.36410291181022
73398.4375,-75.59834827633129
73417.96875,-75.09630717630618
73437.5,-76.67357995101541
73457.03125,-76.57486489599782
73476.5625,-75.6690216045032
73496.09375,-75.76006788454781
73515.625,-74.68041933252655
73535.15625,-72.50005470664851
73554.6875,-72.40932055741466
73574.21875,-76.52184363816529
73593.75,-86.84560592817455
73613.28125,-83.31348155080933
73632.8125,-76.93729436967827
73652.34375,-75.77031900939727
73671.875,-74.70398991332992
73691.40625,-72.88632528249387
73710.9375,-71.1273650461082
73730.46875,-69.86126848516543
73750,-69.7079929431122
73769.53125,-71.51241625499348
73789.0625,-77.35343016797565
73808.59375,-89.18513894959645
73828.125,-89.61487819941105
73847.65625,-81.68846120533814
73867.1875,-80.10802682174622
73886.71875,-85.0191391583793
73906.25,-79.22213833741378
73925.78125,-77.32341752778217
73945.3125,-76.28939045035808
73964.84375,-74.37914181783849
73984.375,-72.04005324167183
74003.90625,-70.66887638732892
74023.4375,-70.58086428527999
74042.96875,-70.49671768636605
74062.5,-71.55146193862574
74082.03125,-76.31135346850994
74101.5625,-79.75390717058474
74121.09375,-77.44425395561217
74140.625,-76.71438638114527
74160.15625,-74.80399782224333
74179.6875,-72.70947835155314
74199.21875,-74.12676741779404
74218.75,-78.85928156193683
74238.28125,-85.92529266500168
74257.8125,-80.02064983538307
74277.34375,-80.1515825778757
74296.875,-84.17068974252614
74316.40625,-85.15056519344581
74335.9375,-79.83350120859785
74355.46875,-79.24735681967006
74375,-78.91149563348296
74394.53125,-77.00020553266495
74414.0625,-76.32274913145251
74433.59375,-76.50876844891221
74453.125,-79.26349043555791
74472.65625,-82.52147737922184
74492.1875,-78.84721406227129
74511.71875,-78.18559202516371
74531.25,-79.94964608000659
74550.78125,-81.19923367645198
74570.3125,-79.85459384979323
74589.84375,-73.76646371217619
74609.375,-71.30463591077579
74628.90625,-70.48048848901119
74648.4375,-70.54268202806007
74667.96875,-71.92110157800383
74687.5,-74.19949847738739
74707.03125,-75.504927726109
74726.5625,-77.59597869701958
74746.09375,-82.46194665946967
74765.625,-90.91822458923571
74785.15625,-90.65934543988587
74804.6875,-82.08242767614868
74824.21875,-75.73260850453163
74843.75,-72.36662142510477
74863.28125,-71.84847012188578
74882.8125,-72.48325437546157
74902.34375,-71.79454596586571
74921.875,-70.7389486522125
74941.40625,-71.78958512264681
74960.9375,-74.54722524473469
74980.46875,-71.07998040391325
75000,-68.7403125791263
75019.53125,-68.93418645751316
75039.0625,-70.32179107674196
75058.59375,-73.61159135123145
75078.125,-74.22508635348811
75097.65625,-72.78776051461128
75117.1875,-71.87959908352531
75136.71875,-71.13034610416841
75156.25,-71.06571262960395
75175.78125,-71.64474246772497
75195.3125,-74.67004941994065
75214.84375,-80.54713777763843
75234.375,-84.69521222618647
75253.90625,-85.04724539295323
75273.4375,-87.52588622549465
75292.96875,-78.10597779061521
75312.5,-72.02399202917171
75332.03125,-69.3483987593015
75351.5625,-67.61768565172686
75371.09375,-67.34470770260435
75390.625,-68.47805327015597
75410.15625,-70.68401392378149
75429.6875,-76.77431483900767
75449.21875,-77.36711950628732
75468.75,-71.08865785194267
75488.28125,-68.11620402981623
75507.8125,-67.01827248501351
75527.34375,-66.78311302765267
75546.875,-67.6148448011737
75566.40625,-70.06456602083043
75585.9375,-73.71015050562116
75605.46875,-77.10182378514935
75625,-75.98377636607387
75644.53125,-73.39840376681502
75664.0625,-73.72996216348498
75683.59375,-75.43540323097447
75703.125,-75.50107258141576
75722.65625,-75.29620586602115
75742.1875,-76.60687503052105
75761.71875,-82.14848645702486
75781.25,-80.86691001133516
75800.78125,-76.43391706416966
75820.3125,-72.49027084974199
75839.84375,-71.2109445788158
75859.375,-72.92102786868975
75878.90625,-73.39544844382311
75898.4375,-74.28076986636881
75917.96875,-79.5251334402778
75937.5,-81.6398443835258
75957.03125,-76.81058767320935
75976.5625,-74.54195146673338
75996.09375,-75.12855248451285
76015.625,-73.15244872852419
76035.15625,-73.8672916228542
76054.6875,-78.59997237917742
76074.21875,-73.10936957386789
76093.75,-69.57453642305649
76113.28125,-67.80613807260188
76132.8125,-68.04390281061367
76152.34375,-70.2487475570729
76171.875,-72.44867743610226
76191.40625,-75.47267884657334
76210.9375,-81.40198871962632
76230.46875,-84.95506171936808
76250,-82.5500564004021
76269.53125,-84.84452471143526
76289.0625,-91.61700398667742
76308.59375,-82.54660961563434
76328.125,-78.80149640830828
76347.65625,-77.21025637871469
76367.1875,-74.26357143599778
76386.71875,-72.58536532513907
76406.25,-71.83962747059306
76425.78125,-72.12784493722295
76445.3125,-73.41807153648358
76464.84375,-73.37028627208952
76484.375,-73.75731331588781
76503.90625,-74.83283385883257
76523.4375,-75.57529116050183
76542.96875,-76.92716211228263
76562.5,-76.41038032816556
76582.03125,-74.66083036985809
76601.5625,-72.85153017855916
76621.09375,-71.06132550361784
76640.625,-71.09555807017883
76660.15625,-73.00621644856299
76679.6875,-77.90310590205128
76699.21875,-84.41620022802128
76718.75,-78.44869257836091
76738.28125,-74.83555754866892
76757.8125,-72.99514931075538
76777.34375,-74.38159134046687
76796.875,-77.16191426387481
76816.40625,-77.3073800243037
76835.9375,-78.25523660213905
76855.46875,-79.24904751008521
76875,-86.1046199325105
76894.53125,-93.83771023226736
76914.0625,-81.76724073771652
76933.59375,-76.20529657727272
76953.125,-74.0009598591584
76972.65625,-72.45243166662229
76992.1875,-71.86717436590212
77011.71875,-74.62395885226341
77031.25,-82.43476149454756
77050.78125,-84.37509649036862
77070.3125,-75.24270295751293
77089.84375,-71.71643874188808
77109.375,-70.01187463414168
77128.90625,-70.35609002947615
77148.4375,-70.47408598014383
77167.96875,-71.06139018748139
77187.5,-73.90224031069886
77207.03125,-76.0914761131845
77226.5625,-81.05550168875908
77246.09375,-99.72375904001154
77265.625,-81.49367772872316
77285.15625,-77.98215085335444
77304.6875,-77.98567018016348
77324.21875,-76.2688278312167
77343.75,-75.68918107427417
77363.28125,-75.97823225761803
77382.8125,-79.01295735403151
77402.34375,-79.46186507253147
77421.875,-75.85758740320227
77441.40625,-73.61191360385091
77460.9375,-74.49560362869558
77480.46875,-77.92476049618998
77500,-86.59876735068069
77519.53125,-82.44179429417176
77539.0625,-76.36993701981423
77558.59375,-77.44420070649704
77578.125,-78.36831357210448
77597.65625,-75.57248934742434
77617.1875,-73.94099496280032
77636.71875,-73.55878016929042
77656.25,-74.18467869926425
77675.78125,-75.76135458838553
77695.3125,-77.61194392718139
77714.84375,-79.90906136414605
77734.375,-84.5835073092922
77753.90625,-93.59232913256206
77773.4375,-80.73379310343316
77792.96875,-74.89477314522789
77812.5,-72.60958813532226
77832.03125,-75.83314506056601
77851.5625,-80.89414651391527
77871.09375,-80.63959590692264
77890.625,-81.42216233448202
77910.15625,-81.14667809732707
77929.6875,-79.23680483887139
77949.21875,-77.48999573002013
77968.75,-76.06950108611157
77988.28125,-75.92178831736986
78007.8125,-77.03101744168063
78027.34375,-75.2890582237244
78046.875,-76.70181861778255
78066.40625,-79.53251074748528
78085.9375,-84.62291223761324
78105.46875,-86.95835201649743
78125,-80.4482808864047
78144.53125,-78.67225064329104
78164.0625,-83.41078012767034
78183.59375,-85.80402444381792
78203.125,-78.7490257125155
78222.65625,-74.07928711211368
78242.1875,-70.73072911170266
78261.71875,-69.08787033741079
78281.25,-68.63491977773533
78300.78125,-68.8026757975727
78320.3125,-68.8601509846272
78339.84375,-68.8092825071752
78359.375,-70.19324249956159
78378.90625,-73.11248980708962
78398.4375,-75.24223262435962
78417.96875,-74.75948617108598
78437.5,-71.97686339477694
78457.03125,-70.56773396701942
78476.5625,-70.68047922672795
78496.09375,-71.55466250444717
78515.625,-74.51596623777168
78535.15625,-78.28889310313603
78554.6875,-77.14224132926685
78574.21875,-73.87280775246644
78593.75,-70.851218807538
78613.28125,-69.37026592759013
78632.8125,-70.00280162148559
78652.34375,-70.84649795705567
78671.875,-73.40069021568954
78691.40625,-80.79235208315474
78710.9375,-86.43291413047292
78730.46875,-80.02308108023323
78750,-76.11390546474733
78769.53125,-74.82559454120043
78789.0625,-73.21285327533036
78808.59375,-72.73493092955029
78828.125,-74.78794112279495
78847.65625,-77.55320937163998
78867.1875,-78.40101718000034
78886.71875,-77.72378098711897
78906.25,-75.00725191444675
78925.78125,-72.01837213800312
78945.3125,-70.73682658645825
78964.84375,-70.56633818558802
78984.375,-72.00115764895298
79003.90625,-75.76963711216095
79023.4375,-80.46902444351161
79042.96875,-82.12346019040129
79062.5,-81.42843674028107
79082.03125,-83.1942993676295
79101.5625,-78.54241675034612
79121.09375,-72.69858705773038
79140.625,-70.86877230791055
79160.15625,-70.77866107825906
79179.6875,-71.15208164960355
79199.21875,-71.60121793646287
79218.75,-70.64891105611848
79238.28125,-71.12350349634272
79257.8125,-71.51704178639062
79277.34375,-71.78415877499187
79296.875,-74.1238333068242
79316.40625,-79.41738317873555
79335.9375,-86.33799760646477
79355.46875,-78.66348621288915
79375,-78.31476963200997
79394.53125,-86.58195802974083
79414.0625,-82.97933974680296
79433.59375,-77.42875296902416
79453.125,-76.63163540370186
79472.65625,-77.20665371276394
79492.1875,-81.5142948265604
79511.71875,-79.21563902567905
79531.25,-77.72277442132834
79550.78125,-75.36460625961693
79570.3125,-74.26443457123433
79589.84375,-73.94403048959133
79609.375,-73.92587058654684
79628.90625,-76.27900361859867
79648.4375,-78.31123001820404
79667.96875,-75.42553608335369
79687.5,-74.33167536959982
79707.03125,-75.03636311544581
79726.5625,-73.77972428260895
79746.09375,-73.29003627326573
79765.625,-71.2671664483069
79785.15625,-69.71093907335859
79804.6875,-69.34788418692909
79824.21875,-70.33767674403764
79843.75,-73.33907464741299
79863.28125,-80.05672344867349
79882.8125,-86.61636056875207
79902.34375,-80.13315474802808
79921.875,-77.69102628260394
79941.40625,-78.42162854385177
79960.9375,-80.04361936925372
79980.46875,-79.07786793562919
80000,-75.94474689306823
